AccX[mg]	AccY[mg]	AccZ[mg]	GyrX[dps]	GyrY[dps]	GyrZ[dps]	
-65.636002	-119.011002	992.958008	0.883750	-2.235625	-3.088750
-98.576004	-64.843002	961.238037	0.883750	-2.235625	0.000000
-52.582001	-79.422005	1006.255981	1.846250	-32.436249	-4.344375
-0.061000	-65.879997	1011.562988	10.198125	-73.849998	-20.689375
107.116005	-51.362000	1021.445007	-3.465000	-94.771248	-34.536251
122.244003	-63.623001	1007.598022	-6.960625	-53.926250	-31.543751
86.986000	-29.097000	1053.348022	-0.525000	50.999374	-0.490000
12.322001	-115.045998	1615.828979	10.858750	88.847504	12.092500
-43.249001	-65.879997	1186.389038	5.814375	-11.230625	-8.461250
-1.586000	-48.678001	1066.828979	-42.966873	-73.919998	-28.367500
-7.991000	-41.053001	1006.622009	9.121875	-70.253754	-26.411875
44.103001	-122.854004	1712.331055	-61.105625	-44.134998	-1.220625
143.044998	-186.050003	868.335022	-83.886253	-7.446250	55.873123
97.478004	-159.453995	1152.350952	87.211250	32.418751	66.403748
-29.889999	-141.641998	1998.604004	132.562500	7.739375	30.703751
60.389999	0.671000	505.628998	-69.982498	19.971874	-33.442501
170.068008	-2.318000	1998.604004	70.494377	29.754375	-60.549999
44.164001	-3.538000	1187.853027	77.520622	7.660625	-64.981873
-56.181000	-50.751999	1017.480042	-49.533749	-13.763750	-65.253128
263.214996	-204.837997	-269.010010	-60.200001	-28.896875	-42.455002
50.691002	-119.376999	1077.504028	16.021250	-63.831249	-32.803749
104.005005	-264.557007	969.900024	2.839375	2.773750	-83.238747
26.230000	107.725998	982.954041	-6.654375	101.031876	-25.926250
-203.191010	-274.561005	1013.210022	3.298750	34.439999	31.184999
28.792000	-19.093000	997.106018	12.801250	9.870000	26.162500
63.500999	74.419998	1276.425049	13.492500	-13.706875	25.628750
292.373016	-37.453999	1262.700073	44.708126	-122.298752	73.963753
342.759003	60.207001	1289.052002	50.544376	-126.271248	65.852501
298.899994	-29.463001	826.062012	26.950001	-58.174374	37.979374
567.239014	88.511002	1111.968994	61.766251	98.170624	32.506248
188.917007	208.132004	959.286011	42.105000	75.709373	-11.112500
290.665009	133.772995	634.156006	-1.058750	50.426250	-4.567500
143.167007	158.904999	970.997986	-11.532500	49.096249	0.315000
114.070000	281.332001	762.317017	-2.996875	50.448124	-10.132500
-5.795000	228.079010	920.794983	-18.514999	-28.350000	10.342500
-13.786000	95.221001	758.473999	-62.737499	29.736876	21.542500
-91.256004	5.673000	1008.940002	-55.496876	7.332500	23.161249
-163.541000	-101.992004	1052.250000	-61.556252	10.268125	-16.476250
134.992996	-83.875000	883.768005	-8.063125	-55.448750	-47.328751
-58.499001	-246.013000	1062.802979	61.363750	-41.308750	-37.366875
19.153999	-263.398010	1026.203003	33.678749	4.646250	-36.049999
114.375000	-248.880005	914.755981	-13.260625	22.316875	-37.445625
-110.959000	-215.818008	1042.795044	-3.670625	29.820000	-22.255625
14.762000	-270.291016	967.398987	4.935000	43.719376	-32.685623
40.015999	-117.913002	1023.031006	12.608750	44.830624	-20.426874
69.052002	-135.785995	864.858032	-23.450001	-16.270624	10.399375
-25.498001	-108.580002	1020.530029	-6.676250	-31.648750	19.582500
36.844002	-83.752998	1121.363037	27.190624	-14.529375	24.259375
-53.924000	-66.612000	1231.223999	30.834999	31.316250	11.186875
-103.090004	13.725000	1128.317017	31.626875	23.673124	2.918125
-114.497002	20.191000	1125.816040	34.658749	9.331875	-10.478125
-76.311005	48.068001	1126.060059	17.338125	-41.991249	-23.511250
139.934006	50.264000	909.143982	18.129999	-27.737499	-9.480625
133.895004	27.694000	934.580994	11.410000	-40.538750	1.404375
112.301003	54.046001	904.996033	-22.671249	-1.470000	-4.309375
6.039000	46.909000	998.936035	-16.716875	10.793125	7.555625
96.868004	31.842001	998.082031	-21.883751	-41.750626	2.992500
70.089005	50.202999	898.103027	-17.718750	-34.383125	5.346250
97.478004	-15.616000	1056.458984	-13.925625	24.906876	12.656875
16.469999	-53.253002	1103.124023	-16.257500	63.813751	1.583750
-27.816000	22.448000	1124.046997	8.286250	23.292500	-8.347500
38.368999	6.100000	1033.645020	23.366875	-7.748125	-6.807500
-105.652000	41.785000	1084.763062	8.916250	0.153125	0.288750
91.256004	-2.806000	946.842041	-2.222500	4.221875	23.725624
-83.692001	7.930000	1103.489990	4.589375	15.815625	-6.321875
46.055000	53.558002	1150.703979	1.601250	-1.120000	-18.011875
18.361000	94.367004	1048.895020	4.095000	-24.605000	0.984375
104.859001	57.157001	943.242981	4.593750	-10.491250	4.567500
188.307007	36.783001	1105.015015	-15.531250	6.085625	-16.441250
23.607000	41.418999	1048.041016	-21.144375	13.479375	-4.760000
-12.993000	31.415001	972.096008	-18.650625	1.163750	-3.753750
97.234001	58.072002	1134.416992	-17.285625	-17.819374	-10.648750
89.181999	9.638000	946.903015	-21.835625	-11.554375	25.676874
-39.771999	14.457000	1097.145996	-4.781875	0.074375	28.805000
121.329002	-40.320999	1047.248047	3.014375	-13.470625	25.961250
86.620003	62.525002	1009.489014	11.580625	-11.838750	14.831250
34.709000	84.485001	1044.136963	11.414375	2.467500	15.365000
127.368004	20.496000	1091.411987	-7.931875	-38.788750	7.507500
279.868011	-23.546000	957.760986	1.439375	-13.221250	-6.453125
178.425003	-27.572001	1030.900024	2.721250	32.580624	-7.831250
87.840004	-96.806999	885.903015	7.660625	14.468125	-15.268750
200.385010	-75.822998	931.470032	6.186250	-3.613750	-22.141874
162.992004	-34.647999	955.747986	-0.490000	47.998123	-9.340625
-13.725000	-57.401001	966.117981	-5.871250	52.338123	1.172500
-56.181000	-66.673004	1020.591003	-4.720625	10.364375	3.036250
-68.807999	-64.781998	1056.824951	0.389375	-10.692500	-1.413125
-58.681999	-25.437000	1082.078979	3.241875	-7.350000	-6.877500
-53.253002	0.488000	1009.733032	3.640000	-4.812500	-0.800625
-52.948002	-28.914000	1088.728027	2.196250	-26.805626	-0.778750
9.028000	2.196000	1004.975037	0.227500	4.195625	1.789375
49.959000	-4.575000	927.687988	-2.021250	19.306875	10.675000
-2.928000	-25.681000	964.288025	2.690625	3.876250	-4.488750
-8.113000	10.431000	941.656982	-2.966250	-2.266250	-4.453750
-38.063999	-33.123001	1040.964966	-0.428750	-24.898125	-4.913125
77.165001	-51.362000	1048.529053	-6.247500	-16.275000	-0.336875
22.753000	-51.972000	1011.929016	-6.794375	-1.168125	6.028750
-11.346000	-38.063999	1023.824036	-4.213125	-6.601875	2.651250
59.353001	-13.115000	1025.287964	-4.191250	-12.556250	0.253750
43.798000	-23.973000	1037.854004	-4.252500	6.405000	8.675625
12.200000	-20.801001	1024.190063	3.758125	16.738750	4.025000
33.977001	-2.440000	1031.021973	3.775625	4.781875	3.163125
30.988001	13.908000	1012.112000	5.376875	17.963751	4.322500
9.455000	8.235000	1017.785034	3.241875	11.440625	7.765625
30.195000	11.163000	993.263000	0.021875	5.884375	10.425625
15.982000	-39.771999	1027.545044	-2.883125	0.621250	8.356250
25.925001	-26.352001	1031.327026	-8.640625	-7.459375	-1.417500
8.418000	37.209999	1048.346069	-9.043125	-29.373751	-4.838750
63.500999	15.067000	1016.626038	-5.893125	-19.057501	-6.269375
61.487999	8.479000	1036.938965	0.581875	3.303125	2.152500
48.983002	-9.028000	1015.710999	0.262500	13.816250	9.244375
-9.333000	-78.812004	998.509033	-2.139375	20.851250	7.061250
-24.766001	-79.910004	988.749023	-7.441875	8.155000	5.446875
-26.596001	-83.936005	938.302002	-6.339375	-8.076250	3.548125
-5.551000	-88.571999	912.499023	0.507500	-12.101250	7.131250
1.647000	-34.587002	822.828979	3.968125	-12.022500	2.642500
-9.211000	19.093000	715.651978	12.442500	-16.655624	-1.837500
71.187004	52.277000	920.062988	-0.756875	-33.232498	6.142500
158.783005	-57.584000	1123.498047	0.170625	-35.761250	15.456875
79.666000	-54.229000	1274.900024	4.830000	-4.331250	11.453750
101.077003	-39.650002	1203.041992	-12.678750	0.231875	-1.841875
42.272999	-57.218002	1188.036011	-11.265625	-6.785625	-4.401250
69.052002	-60.633999	1127.280029	-8.715000	42.704376	-9.126250
29.219000	-126.270004	1072.685059	-7.288750	62.855625	-5.901875
-2.196000	-107.542999	1040.416016	1.496250	32.602501	-11.296250
-8.357000	-74.664001	1036.145996	-0.415625	11.143125	-15.439375
-8.174000	-77.470001	966.911011	-9.275000	13.116250	-9.108750
-74.298004	-76.006004	920.856018	-5.162500	2.585625	-4.528125
-31.720001	-75.639999	924.577026	6.851250	7.551250	-15.308125
-20.862000	-51.056999	889.502014	16.283751	3.998750	-13.623750
-0.061000	-45.445000	968.557983	16.795626	-6.737500	-9.139375
28.670000	-41.174999	965.264038	11.484375	-5.350625	-1.736875
-21.960001	-55.510002	991.005981	6.335000	2.988125	0.192500
-39.528000	-50.569000	969.229004	2.620625	6.492500	-1.894375
-14.823000	-42.395000	981.246033	-5.171250	-2.506875	-2.310000
-1.586000	-61.366001	1011.502014	-5.499375	0.787500	1.881250
-15.372000	-77.958000	1040.294067	-6.930000	-4.038125	-3.062500
-1.464000	-25.681000	1019.371033	-6.479375	-9.979375	-9.533125
7.625000	-20.434999	1021.811035	-1.833125	-0.087500	-6.365625
-13.054000	-30.805000	1014.186035	3.110625	3.320625	1.509375
-22.326000	-48.250999	956.053040	-2.428125	4.265625	9.909375
-22.204000	-78.323997	1017.723999	-0.411250	8.715000	3.373125
-11.346000	-31.110001	1039.379028	3.456250	-7.861875	-0.621250
-1.891000	1.342000	1048.041016	3.928750	-10.565625	-6.125000
18.117001	26.291000	1060.667969	3.066875	-5.608750	-4.777500
16.348000	25.254000	1047.735962	0.166250	-6.479375	1.373750
-8.235000	-21.472000	1038.525024	-0.205625	5.088125	3.010000
-5.978000	-17.507000	1009.671997	-0.573125	0.455000	1.019375
31.903000	-46.055000	1016.687012	-3.535000	-6.444375	1.470000
14.152000	-45.262001	991.799011	-0.564375	-1.321250	-1.054375
19.459000	-61.854000	1027.057007	-3.893750	-4.348750	-1.146250
20.374001	-45.750000	1006.744019	-0.293125	0.660625	-2.380000
10.065001	-50.264000	1035.780029	-2.353750	3.740625	-1.246875
12.444000	-58.376999	1026.081055	-8.102500	-2.314375	-4.160625
18.117001	-49.837002	998.143005	-7.476875	1.277500	-5.635000
11.163000	-44.225002	993.445984	-2.773750	5.963125	-5.280625
2.135000	-73.566002	1021.384033	-2.708125	0.743750	-4.891250
24.583000	-37.271000	997.166992	0.691250	-5.320000	-4.270000
4.941000	-38.491001	1004.914001	2.883125	0.043750	6.580000
20.984001	-32.269001	1043.161011	0.481250	-0.835625	5.140625
8.845000	-43.493000	1018.639038	2.135000	5.578125	7.770000
-5.124000	-32.695999	1017.480042	-1.688750	1.277500	4.445000
18.483000	-44.225002	1020.835022	-2.086875	-1.995000	2.979375
2.928000	-30.012001	1008.147034	-2.454375	0.210000	2.419375
21.655001	-52.277000	1017.419006	-0.936250	2.030000	3.574375
17.934000	-41.602001	1007.171021	1.163750	-0.717500	2.948750
19.153999	-32.757000	1018.212036	-2.021250	-1.780625	3.766875
4.270000	-43.249001	1005.829041	-2.572500	2.231250	1.728125
13.969000	-56.424999	1005.280029	-1.780625	-3.526250	0.170625
23.363001	-45.628002	1005.645996	-0.643125	-2.983750	-3.071250
35.624001	-54.961002	994.239014	1.045625	-6.750625	-0.358750
24.827000	-51.056999	1021.994019	-1.430625	-0.485625	0.056875
26.352001	-59.719002	1011.319031	1.448125	-2.148125	-1.505000
27.938000	-44.652000	1006.866028	1.207500	-4.208750	-0.822500
30.439001	-56.303001	1010.953003	-1.802500	-0.074375	-0.105000
29.402000	-61.610001	1003.267029	-1.071875	-3.788750	1.006250
27.205999	-59.902000	1041.941040	-2.065000	-3.920000	-2.590000
45.139999	-38.979000	996.739990	0.809375	-3.465000	-2.817500
50.691002	-56.608002	1002.413025	2.030000	1.903125	-2.870000
19.032000	-20.313000	982.710022	2.331875	-2.808750	-4.878125
56.669003	-56.303001	1040.537964	0.638750	-6.654375	-2.506875
23.180000	-80.946999	1014.002991	-0.065625	1.120000	-1.500625
47.763000	-82.959999	1045.906006	1.098125	-5.385625	-4.156250
46.970001	-61.549000	1014.674011	0.700000	-2.248750	-1.933750
40.077000	-31.354000	1022.786987	0.953750	-0.787500	-2.935625
58.132999	-45.383999	1024.800049	0.603750	-1.290625	0.643125
43.066002	-37.027000	997.044983	3.106250	0.345625	0.844375
41.174999	-141.824997	999.729004	-1.076250	0.017500	5.814375
24.766001	-119.255005	1029.070068	7.498750	0.603750	5.998125
46.055000	-68.259003	1022.421021	11.081875	-0.844375	4.484375
54.473000	-40.625999	1002.351990	8.929375	-0.301875	1.701875
105.224998	-17.995001	1031.144043	5.468750	3.355625	2.485000
62.037003	0.183000	984.418030	3.438750	4.580625	6.059375
48.678001	63.684002	1037.792969	6.855625	2.209375	-3.854375
106.750000	69.723000	1027.911011	2.008125	-1.741250	-5.009375
72.956001	15.555000	982.588013	0.406875	1.513750	-0.586250
60.389999	-53.924000	1042.185059	-0.433125	2.966250	3.115000
5.185000	-119.194000	987.406982	-2.642500	4.270000	5.372500
7.076000	-159.027008	1023.885010	-0.323750	6.864375	2.471875
4.148000	-166.835007	963.921997	0.721875	0.485625	6.553750
9.577000	-232.410004	966.362000	4.095000	3.329375	9.861250
-41.236000	-259.799011	1030.717041	7.686875	4.090625	12.355000
33.306000	-268.583008	993.629028	2.708125	-10.001250	14.175000
35.746002	-295.057007	1008.330017	2.830625	-16.309999	24.906876
46.726002	-371.002014	1056.885986	-1.421875	6.046250	37.996876
137.738007	-304.329010	1018.028992	-9.555000	-11.125625	27.055000
183.244003	-206.667999	977.036987	-11.843125	25.860624	44.681873
234.179001	91.927002	1054.567993	4.790625	-12.333125	21.984375
168.848007	157.440994	1107.454956	10.836875	16.511250	60.913124
124.440002	111.264000	1002.535034	8.356250	31.946251	72.239998
-10.431000	137.494003	1099.281006	4.746875	8.360625	63.446251
98.697998	122.487999	1016.077026	-1.474375	-8.378125	55.650002
146.033997	229.970001	1045.661987	17.219999	-4.830000	32.786251
48.922001	285.785004	1026.508057	8.588125	-1.456875	40.459999
164.272995	179.949997	1037.732056	-8.277500	-4.956875	38.211250
65.819000	138.775009	958.066040	-8.767500	-10.591875	14.437500
94.428001	200.690002	962.397034	1.964375	-22.146250	0.310625
40.199001	231.800003	1006.866028	2.773750	-6.912500	-1.360625
85.278000	228.872009	1033.828003	-7.367500	-1.163750	-1.684375
8.662000	147.009995	1078.846069	-17.784374	-10.224375	5.215000
80.886002	68.807999	1328.946045	-12.499375	-13.002500	-1.990625
-8.235000	108.885002	1255.928955	-6.562500	-9.673125	-12.705000
87.168999	113.277000	1367.558960	-13.514375	-9.699375	-16.191875
42.212002	123.037003	1302.105957	-16.388750	15.216250	6.431250
-52.704002	36.660999	1365.302002	-13.680625	40.634998	15.028125
-64.293999	8.662000	1093.791016	4.550000	38.618126	-19.271875
94.123001	-17.385000	1193.708984	15.627500	36.793751	-50.767502
141.397995	32.879002	1248.609009	7.800625	39.108124	-24.902500
42.272999	-184.220001	1231.346069	12.617500	82.866875	-10.526250
228.750000	-167.750000	1196.576050	10.154375	63.796249	-8.605625
-20.007999	-79.300003	920.916992	24.001249	74.217499	9.673125
15.189000	-196.602997	972.645020	8.688750	104.125000	-4.843125
-246.684006	30.805000	692.960022	15.728125	50.889999	4.646250
-297.313995	-135.725006	741.942993	14.511875	55.544998	-14.625625
-355.264008	25.254000	677.526978	14.726250	40.801250	-13.720000
-231.311996	-141.703003	613.294006	8.890000	47.853748	-9.821875
-449.447998	7.503000	597.312012	3.403750	6.033125	-3.495625
-371.246002	-112.301003	606.278992	24.705626	29.684376	-21.196875
-310.734009	-28.121000	675.575012	4.436250	0.756875	-18.760000
-365.329010	-19.825001	670.145996	-4.099375	9.454375	-8.990625
-362.035004	2.257000	612.867004	-13.877500	3.749375	-8.115625
-349.652008	111.508003	548.877991	-20.855625	-17.023125	-3.399375
-352.458008	66.124001	448.289001	7.201250	1.198750	-16.891874
-229.238007	95.891998	589.260010	10.600625	-38.145626	-24.806250
-230.335999	55.754002	554.856018	-2.743125	-24.158751	-27.676250
-47.580002	175.313995	739.686035	-3.294375	-54.656876	-22.889999
-146.705002	24.339001	635.681030	9.117500	-48.247501	0.332500
-51.300999	69.174004	872.726990	12.372500	-82.337502	-7.056875
-26.657000	-61.915001	998.325989	-7.030625	-85.802498	-21.791876
71.553001	34.831001	1114.286987	-12.368125	-100.896248	-31.880625
73.749001	-85.095001	1198.223022	-11.991875	-93.261871	-65.397499
217.831009	-54.778000	1256.966064	-14.918750	-82.967499	-45.281250
147.681000	-276.817993	1318.697998	-16.799999	-61.013748	-49.643124
179.828003	-490.867004	1238.177979	-38.298752	-60.055626	-36.780624
94.976997	-414.190002	1280.755981	1.316875	-38.500000	-30.371250
149.022995	-452.192993	1554.890015	12.267500	-33.845001	-17.075624
126.941002	-403.088013	1520.242065	6.151250	-40.363750	-2.896250
146.583008	-266.936005	1330.410034	11.641875	-16.795626	-2.410625
114.314003	-238.510010	1230.431030	6.361250	-13.995625	-2.401875
168.298996	-170.861008	1076.771973	-1.885625	-3.797500	-1.575000
213.500000	-273.341003	1079.639038	5.407500	13.291250	4.226250
119.194000	-309.514008	968.192017	-2.804375	27.684999	0.586250
162.626007	-320.677002	875.716003	-9.419375	24.880625	-14.056875
176.778000	-437.553009	968.070007	13.138125	50.028126	46.116875
98.576004	-373.686005	934.520020	14.581875	85.443748	44.104374
144.326004	-377.223999	987.406982	-8.841875	76.496872	43.610001
108.458000	-233.081009	918.721008	-18.637501	-15.106875	41.960625
114.985001	-183.427002	972.889038	12.945625	18.773125	36.426250
112.728004	-108.092003	1137.467041	5.858125	26.809999	37.305626
151.462997	56.791000	1042.001953	1.509375	-6.969375	26.350624
175.130997	213.378006	967.520996	16.926874	-4.414375	18.830000
114.192001	259.127991	1138.625977	12.954375	-11.948125	19.385626
11.651000	257.541992	989.237000	-8.898750	1.846250	36.203125
6.832000	258.152008	1027.057007	0.280000	-4.379375	38.386250
38.552002	180.559998	1032.912964	4.672500	14.328125	40.005001
-2.013000	129.197998	963.372986	5.893125	12.989375	32.449375
-23.363001	73.749001	999.851013	6.741875	15.273125	12.915000
-22.082001	18.971001	978.013000	0.616875	4.554375	11.086250
-23.180000	-23.363001	956.419006	3.561250	-4.563125	0.363125
35.136002	-30.195000	978.989014	9.891875	-9.616250	4.589375
-2.257000	-27.145000	1041.514038	13.129375	-8.553125	5.341875
13.908000	4.026000	1101.294067	4.480000	-0.813750	-0.280000
-63.500999	0.061000	1146.677979	0.875000	-7.616875	-0.288750
-53.862999	30.866001	1218.474976	5.096875	-11.532500	3.994375
-75.091003	32.208000	1268.739014	-0.931875	-19.945625	7.918750
-58.804001	51.056999	1328.458008	10.259375	-26.648125	3.753750
14.152000	120.963005	1439.051025	11.904375	-21.774376	4.291875
114.009003	114.131004	1559.526001	2.196250	-10.360000	12.276250
13.969000	98.454002	1376.708984	4.860625	26.070625	10.320625
130.479004	44.225002	1605.885986	-33.048752	27.343750	-5.823125
155.123001	66.917000	1284.477051	-17.399376	13.177500	1.942500
91.439003	16.836000	937.387024	-0.581875	92.605621	3.438750
48.007000	-17.202000	887.794006	13.413750	96.162498	-2.205000
56.181000	-41.785000	989.114990	20.597500	83.181877	-20.619375
165.919998	32.695999	1026.568970	-5.648125	57.137501	6.886250
112.423004	-166.102997	707.905029	29.369375	101.027496	22.623125
-196.542007	-92.720001	549.487976	22.067499	82.123123	8.080625
-250.039001	-79.666000	346.846008	13.221250	52.202499	-7.700000
-321.287018	-77.835999	399.367004	12.411875	46.493126	-24.281250
-437.919006	50.569000	419.497009	-10.587500	23.309999	-13.475000
-491.843018	12.261000	543.510010	12.503750	27.719999	-12.215000
-477.934998	61.487999	750.483032	2.690625	4.948125	11.449375
-404.063995	-45.506001	776.773987	11.554375	13.300000	0.730625
-364.231018	52.154999	752.069031	-5.131875	-9.664375	-11.733750
-325.679016	102.053001	631.166992	-3.933125	-13.606250	-16.528749
-298.045990	211.914001	441.274017	6.348125	-25.440624	-20.006874
-260.408997	129.320007	585.416992	8.028125	-46.073124	-2.520000
-190.747009	143.106003	589.199036	31.062500	-38.626877	-5.722500
-217.587006	138.104004	637.815979	41.142502	-68.368126	-9.524375
-31.598000	178.303009	850.705994	15.570625	-72.025627	-29.828751
110.593002	66.184998	1033.096069	67.059998	-78.504997	-30.585625
28.792000	267.058014	903.226990	31.053749	-83.855621	-47.818748
53.008999	94.672005	1191.146973	25.847500	-94.539375	-25.182501
43.005001	-6.039000	1123.071045	-5.823125	-100.922501	-32.291874
-21.350000	82.106003	1018.517029	-25.357500	-107.419373	-27.243126
166.042007	-88.816002	1118.068970	-30.940001	-79.830627	-5.989375
-67.709999	5.612000	1079.029053	-27.518749	-31.709999	-8.203125
96.929001	-167.994003	1291.735962	-40.031250	-1.395625	-10.268125
33.062000	-256.016998	1658.346069	-52.290001	-82.775002	-33.643749
347.761017	-34.831001	1697.935059	-40.713749	-76.733124	-41.794376
154.940002	-118.889000	1336.144043	-52.543751	-13.151250	-2.156875
278.160004	-128.527008	1220.182983	-49.949375	-3.745000	-4.528125
142.800995	-188.367996	1061.034058	-22.281876	5.753125	1.763125
165.859009	-200.018997	1091.534058	2.362500	41.895000	-11.414375
171.348999	-234.362000	1041.270020	5.779375	45.626877	-5.936875
90.889999	-231.373001	982.527039	6.693750	15.474375	-1.754375
130.113007	-312.075989	1006.804993	16.878750	12.512500	-3.237500
142.007996	-314.272003	957.212036	15.815625	16.502501	9.366875
79.422005	-422.119995	986.614014	15.605625	20.991249	22.710625
65.026001	-375.638000	967.460022	8.933750	19.193125	33.289375
61.243999	-395.402008	1026.751953	1.286250	0.634375	29.995001
198.494003	-274.622009	961.604004	-5.341875	-2.620625	31.718750
117.973999	-232.044006	942.816040	-4.103750	22.675625	40.328751
201.848999	-88.999001	1004.914001	21.498751	4.033750	39.983124
69.112999	61.854000	1025.837036	31.145624	-4.624375	52.412498
178.973999	14.030000	1166.686035	-1.872500	68.250000	49.713123
128.100006	145.485001	982.832031	-34.772499	3.281250	45.154373
223.260010	40.199001	1104.222046	-43.601250	-10.176250	47.621876
38.186001	80.581001	944.645996	-66.254997	-10.745000	33.201874
224.846008	144.570007	1024.373047	3.731875	-29.067499	5.530000
74.969002	135.481003	1026.691040	13.046250	9.143750	27.247499
64.843002	154.147003	970.570984	11.620000	16.441250	23.012501
58.011002	95.831001	997.838013	7.511875	-31.976875	27.085625
61.061001	11.285000	1089.216064	9.156875	-6.908125	17.683750
126.331001	85.034004	991.127991	26.372499	-13.733125	5.219375
131.210999	-6.832000	1108.796997	28.118126	-19.643749	14.266875
81.008003	-62.646999	1108.248047	19.976250	10.031875	11.326875
91.134003	5.673000	1007.171021	19.652500	0.761250	5.709375
30.805000	-9.943000	1080.126953	2.611875	12.166875	-6.877500
116.327003	-18.849001	1175.896973	-10.902500	0.210000	-7.122500
74.359001	-28.243000	1192.062012	-5.184375	-4.812500	-2.445625
-7.320000	-15.494000	1127.157959	-1.693125	22.334375	-10.959375
-20.374001	75.152000	1165.282959	-18.865000	-10.027500	-26.083750
136.395996	78.995003	1405.013062	-1.260000	-22.566250	-10.889375
-110.166000	130.966995	1580.571045	-3.386250	65.922501	2.835000
5.551000	156.831009	1500.234009	2.533125	28.323750	-16.550625
62.952000	-58.926003	1783.945068	-1.505000	29.614374	7.231875
56.791000	-222.040009	1209.203003	-20.391874	102.532501	5.311250
116.998001	-194.346008	1153.327026	27.991249	102.103752	-27.195000
106.322998	-165.432007	922.686035	4.615625	89.031250	-33.066250
-36.112000	-15.372000	741.333008	22.938126	78.898750	-32.326874
9.638000	-113.521004	775.127014	26.499374	76.168747	-7.568750
-192.516006	-50.751999	668.559998	16.813126	49.520626	-2.485000
-114.557999	-81.862000	442.677002	33.114376	86.646873	-1.841875
-344.101013	-141.214996	410.529999	26.302500	36.023750	1.369375
-299.388000	-41.663002	445.727020	10.946250	37.327499	-4.961250
-437.614014	-63.623001	372.282990	-0.468125	43.448124	-0.450625
-445.971008	-7.625000	618.539978	-0.743750	29.098125	-6.295625
-505.019012	-75.212997	674.233032	3.495625	7.634375	-9.410625
-454.145020	-9.577000	725.595032	7.577500	11.939375	-11.865000
-425.414001	6.100000	745.725037	-4.208750	-13.020000	2.323125
-540.033020	52.216000	741.515991	6.291250	-15.973125	-5.180000
-383.567993	49.653999	678.075989	14.157500	-9.358125	-12.735625
-398.085999	114.741005	709.307983	12.131875	-30.843750	-15.920625
-196.054001	101.503998	701.804993	6.190625	-27.129375	-7.363125
-251.625000	148.962006	733.708008	1.369375	-26.954374	18.856251
-374.417999	99.307999	431.757996	16.270624	-43.959999	-9.375625
-76.432999	246.501007	632.203979	24.762501	-80.758125	-21.485624
-145.240997	164.578003	557.601013	35.293125	-71.544373	-19.245625
-104.126999	197.274002	731.085022	3.276875	-71.448128	-5.845000
25.802999	36.050999	811.361023	-11.165000	-92.246872	-24.053749
-66.124001	50.751999	923.601013	-40.446877	-90.833748	-25.895624
253.333008	-162.931000	1338.339966	-62.671875	-100.069374	-35.748123
-58.072002	-115.167999	1232.749023	-24.639999	-130.143127	-14.984375
157.501999	-368.867004	1816.823975	-43.089375	-91.682503	-38.478127
145.363007	-203.434998	1451.129028	-77.586250	-34.746250	-36.789375
7.503000	-317.505005	1506.883057	1.386875	7.275625	4.344375
-124.500999	-216.244995	1421.239014	-9.690625	-15.124375	7.713125
31.232000	-285.419006	1355.907959	-20.916876	-21.735001	-14.271250
72.163002	-285.114014	1163.453003	-11.112500	-20.663124	-21.297501
101.992004	-311.770996	1061.827026	-2.371250	2.791250	-16.555000
81.739998	-324.641998	960.200989	4.536875	21.245001	-9.139375
75.579002	-329.033997	897.432007	14.398125	6.846875	-8.386875
189.893005	-402.539001	1025.227051	21.039375	-2.874375	0.875000
54.229000	-406.138000	954.955017	22.540001	17.963751	9.791250
166.835007	-379.114990	1055.117065	25.256874	1.356250	36.636250
40.015999	-307.867004	889.441040	21.490000	26.993750	44.025623
120.474998	-269.071014	1127.707031	24.399376	30.183125	31.298750
52.887001	-109.983002	1075.917969	-5.613125	-3.368750	36.365002
234.606003	-131.089005	999.424011	-10.141250	-15.308125	40.420624
172.874008	-100.528000	1083.786987	-1.526875	-7.892500	49.463749
110.043999	-61.549000	864.492004	-16.401875	12.376875	43.465626
275.720001	33.306000	955.869995	-9.563750	-41.378750	26.788124
194.956009	150.242996	981.307007	-17.705626	-6.746250	64.697502
116.632004	227.835007	933.971008	-27.527500	43.627499	58.134998
235.947998	143.533005	1017.663025	-12.455625	0.288750	16.069374
63.928001	243.451004	1034.316040	-9.161250	-7.170625	0.253750
135.602997	194.468002	1203.407959	0.350000	-29.395624	2.441250
130.113007	134.626999	1116.848999	-3.626875	-13.321875	10.797500
88.511002	105.164001	1099.463989	3.027500	-13.405000	11.991875
90.279999	0.549000	1178.885986	6.230000	8.036875	7.682500
-51.728001	21.410999	1050.297974	12.538750	-5.635000	-14.656250
230.397003	44.469002	1114.225952	17.771250	-20.549376	-0.573125
39.771999	-29.097000	1185.901001	0.166250	2.310000	24.215626
53.436001	-102.113998	1540.677002	8.929375	12.425000	17.543751
-79.361000	-38.674000	1533.601074	9.975000	57.006248	-8.986250
256.505005	-81.556999	1631.078979	18.134375	31.985624	5.311250
-71.248001	-78.507004	1469.185059	38.762501	109.095001	10.193750
132.369995	2.867000	1005.645996	31.556875	72.419373	-18.348749
113.582001	-1.586000	1204.628052	18.545626	-1.456875	-19.809999
203.617996	-52.094002	1218.047974	9.830625	85.439377	-44.073750
147.070999	-66.978004	968.924011	-8.465625	76.549377	-31.801874
-17.995001	-102.358002	999.424011	46.410000	86.362503	-23.205000
-230.824005	99.735001	712.846008	52.447498	88.003128	-13.160000
-123.464005	-165.675995	567.239014	40.285000	103.136253	-6.776875
-210.022995	-74.298004	381.250000	7.993125	65.506874	-7.017500
-466.955017	-29.158001	317.932007	2.646875	35.297501	-22.662500
-443.653015	-19.580999	376.858002	-6.461875	42.332500	-12.906250
-509.106018	47.153000	435.662018	1.509375	0.126875	-1.439375
-566.385010	-10.553000	575.840027	-1.255625	17.246250	12.254375
-518.622009	7.747000	705.953003	3.688125	8.553125	9.730000
-551.074036	-5.124000	698.023010	4.191250	8.093750	10.066875
-540.216003	81.923004	686.250000	-2.795625	3.373125	1.015000
-383.446014	168.787003	572.119019	-1.588125	-22.014999	-6.090000
-415.653992	252.357010	449.936005	4.825625	-42.384998	-3.189375
-314.210999	296.093994	504.165009	14.538125	-53.309376	18.764376
-222.528000	169.945999	490.317993	20.877501	-51.799999	21.017500
-214.903000	208.803009	507.764008	3.482500	-68.726875	10.727500
-57.950001	237.900009	456.645996	7.441875	-83.803123	-8.251250
-265.045013	156.891998	596.945984	-1.802500	-82.683128	5.136250
8.357000	121.512001	798.124023	-9.161250	-108.911247	-24.626875
15.189000	41.480000	1027.118042	-5.656875	-126.761253	-39.624374
278.526001	-10.370000	1291.552979	-16.957500	-110.608749	-36.382500
209.779007	4.514000	1525.976074	2.524375	-91.564377	-11.331250
289.688995	-128.770996	1280.938965	-54.901875	-36.058750	-1.522500
77.165001	-87.656998	1036.695068	-59.814999	-24.167500	-17.158751
126.575005	-260.470001	1251.109985	-60.834373	-21.708750	-31.097500
-20.313000	-316.894989	1278.682007	-63.389374	-5.188750	-19.871250
38.552002	-249.307007	1395.009033	-19.241249	-69.746246	-29.483126
226.432007	-268.278015	1519.265991	5.324375	-69.352501	-29.785000
156.221008	-257.420013	1498.160034	-15.176875	-41.741875	-17.933125
152.072998	-181.292007	1094.889038	-39.738125	21.931875	-2.961875
117.363998	-218.319000	936.106018	-10.635625	31.263750	12.691875
146.156006	-311.343994	968.924011	10.106250	26.722500	6.903750
179.156998	-329.278015	926.528992	12.429375	16.931250	-0.245000
127.978004	-464.881012	980.330994	20.750626	16.808750	4.466875
167.445007	-454.205994	922.380981	33.433750	45.788750	6.422500
164.822006	-450.972992	970.022034	29.032499	30.935625	20.330626
108.519005	-547.169983	999.911987	25.974375	27.212500	37.887501
127.917000	-418.032990	945.561035	15.898750	58.384377	41.256248
141.764008	-331.291016	920.307007	11.235000	50.251251	42.323750
90.279999	24.095001	1062.558960	44.270626	10.552500	8.277500
194.956009	201.971008	1210.545044	32.991875	-18.720625	33.796875
111.934998	147.436996	1036.511963	2.065000	-17.591875	56.739376
89.487000	192.882004	1134.172974	-19.368126	-3.736250	32.948124
145.850998	173.972000	904.264038	-25.659374	-5.219375	20.413750
100.528000	261.140991	926.773010	-23.870001	-38.631248	15.745625
126.148003	309.269989	1093.119995	4.073125	-7.061250	26.394375
47.458000	275.720001	935.617981	6.076875	5.438125	28.511875
57.767002	223.992004	996.130005	-9.016875	9.865625	20.864374
73.321999	80.581001	995.337036	-15.194375	-0.940625	-1.233750
46.421001	105.224998	1018.760986	-2.100000	-0.214375	-1.531250
90.889999	23.424000	1037.915039	0.923125	-5.092500	3.010000
1.525000	9.150001	1055.300049	-6.505625	-4.331250	-0.323750
85.339005	-5.490000	1209.630005	-2.983750	8.260000	1.281875
56.119999	-34.892002	1277.889038	-9.909375	-7.643125	6.024375
34.465000	49.715000	1380.734985	-5.936875	8.496250	7.752500
123.952003	51.972000	1460.339966	-10.950625	37.904999	38.849998
-53.741001	-19.337000	1370.609009	-21.008751	63.625626	41.636875
21.837999	-124.195999	1263.553955	-17.451876	6.300000	23.598749
3.416000	-143.837997	1219.328979	7.669375	24.526251	5.079375
-141.459000	-82.106003	1117.947021	17.955000	22.260000	-16.288124
160.613007	-184.158997	1425.570068	20.221251	25.414375	-15.216250
92.780998	-207.583008	1143.384033	9.314375	73.753754	9.996875
-60.878002	-142.313004	989.541992	41.391876	81.926247	1.032500
-61.732002	-106.689003	1064.816040	69.238747	67.668121	-15.093750
-165.371002	-17.323999	1130.756958	44.358124	59.911251	-28.516251
-117.852005	65.819000	879.254028	33.254375	66.268127	-37.113125
-240.828003	73.261002	780.129028	22.522499	68.565002	-24.504375
-228.628006	-6.893000	515.205994	3.788750	49.997501	-14.350000
-248.270004	-41.114002	565.531006	15.828750	58.296875	-14.848750
-277.062012	-70.638000	484.096008	12.595625	40.788124	-19.792500
-338.916016	-4.697000	486.048004	6.072500	17.036249	-17.211250
-445.787994	25.254000	641.354004	19.565001	27.728750	-15.456875
-398.574005	-88.389000	610.122009	7.271250	12.875625	-6.720000
-428.097992	50.751999	690.947021	4.515000	-2.196250	-15.719375
-398.940002	40.443001	646.843994	4.690000	3.517500	-9.826250
-380.457001	91.682999	583.038025	-2.874375	-11.173750	1.281875
-319.457001	60.938999	562.237000	6.160000	-10.530625	13.317500
-345.687012	328.851013	584.929016	-23.275000	-53.624374	-1.863750
-206.180008	153.598007	729.010986	-3.933125	-39.235001	19.009375
-420.899994	143.167007	679.906006	-2.476250	-25.764376	6.938750
-155.306000	198.921005	886.513000	19.241249	-74.528122	-22.277500
-84.607002	50.447002	963.190002	2.432500	-91.875000	-3.998750
-102.846001	81.984001	883.280029	-12.446875	-92.404373	-35.406876
-48.250999	134.626999	983.869019	10.600625	-81.011871	-30.743126
-24.217001	-5.612000	1037.671021	2.275000	-65.209373	-27.838125
-8.784000	-55.693001	1143.018066	-34.006874	-80.093124	-25.471251
158.173004	-178.242004	1054.750977	-34.046249	-56.651875	-34.838123
-96.806999	-118.950005	1139.296997	-24.920000	-18.624374	-23.795626
64.843002	-282.613007	1241.411011	-32.742500	-30.625000	-10.491250
-112.301003	-239.729996	1174.250000	-10.898125	-49.822498	0.420000
47.519001	-283.467010	1509.872070	-17.005625	-31.745001	-11.808125
258.700989	-239.973999	1615.890015	-37.450001	-72.165627	-0.271250
120.414001	-134.688004	1301.739990	-37.218124	-59.189377	17.281250
163.358002	-230.701996	1335.046021	-19.875626	18.248125	9.996875
118.706001	-184.585999	1187.974976	-18.431875	16.690624	-0.971250
224.602005	-201.178009	1033.706055	-0.770000	11.291875	-13.698125
156.709000	-137.250000	897.614990	5.210625	17.955000	-5.280625
148.291000	-218.380005	903.593018	6.221250	10.368750	9.065000
139.628998	-243.695007	951.966003	13.925625	1.098125	7.376250
129.990997	-239.303009	941.169006	15.316875	2.581250	12.464375
152.195007	-346.601990	945.927002	15.242500	-0.883750	18.528126
-14.823000	-312.502991	977.342041	10.657500	-6.720000	13.138125
73.566002	-349.834991	956.174988	-0.061250	-0.739375	14.245000
147.619995	-414.312012	943.059998	-12.398750	-15.050000	18.256874
146.460999	-534.054993	961.786987	19.175625	46.646252	48.081249
136.091003	-368.074005	963.190002	12.280625	20.632500	28.363125
176.229004	-262.421997	1016.565002	20.326250	1.496250	25.116875
158.844009	-171.044006	977.768982	32.830002	21.573126	28.262501
177.936996	-95.770004	1085.800049	25.340000	33.888748	34.387501
68.807999	-29.341000	1052.859985	10.023125	14.756875	42.682499
131.393997	41.174999	1041.331055	-0.266875	-36.990623	15.907500
223.992004	160.186005	1218.963013	-2.598750	-21.437500	-19.464375
180.072006	261.873016	1041.087036	-12.302500	-6.116250	-8.938125
124.318001	331.535004	1001.864014	-7.021875	-2.191875	-13.545000
49.043999	268.278015	993.263000	0.875000	17.963751	19.254375
70.333000	148.779007	931.713989	-9.441250	-6.531875	22.557501
86.253998	49.471001	969.960999	-7.953750	-36.645000	16.270624
106.079002	54.473000	1072.685059	-1.614375	-6.195000	5.871250
66.063004	-14.335000	1142.713013	-2.611875	3.504375	5.626250
84.180000	-36.783001	1288.747070	3.815000	-19.140625	10.710000
-24.278000	-17.873001	1289.540039	2.695000	-14.538125	1.925000
94.428001	33.123001	1454.422974	2.620625	-43.719376	-6.890625
280.966003	40.564999	1537.016968	-23.091249	-47.665627	28.791876
253.089005	-206.546005	1478.091064	-2.143750	12.670000	-8.693125
357.459991	-255.834000	1391.471069	-3.158750	51.957500	-10.780000
305.304993	-263.214996	1511.823975	20.260626	108.788750	-15.518125
381.860016	-210.389008	1415.932007	25.313749	95.646248	-19.079374
391.071014	-161.223007	1199.381958	15.351875	107.756248	-1.955625
169.824005	-132.979996	976.915039	25.541250	136.202499	3.123750
94.855003	-114.619003	804.101990	16.760626	113.098122	1.238125
-40.077000	-2.379000	678.564026	19.302500	83.186249	5.390000
-99.247002	-43.859001	521.794006	21.380625	112.433128	3.941875
-331.778992	-41.297001	375.272003	11.523750	78.001877	7.691250
-346.968018	-42.944000	374.174011	-8.636250	45.744999	15.150625
-474.824005	57.278999	390.278015	-7.468125	38.793125	14.253750
-563.457031	-53.192001	365.207001	10.469375	47.958752	7.231875
-517.645996	-43.493000	445.848999	-5.726875	2.025625	-0.013125
-564.250000	45.506001	463.477997	-3.141250	-4.086250	-7.297500
-485.438019	-31.842001	517.950989	-1.763125	-22.045626	-14.288750
-337.269012	112.544998	527.345032	6.501250	-30.344999	-19.241249
-383.690002	208.132004	539.849976	33.691875	-34.146873	-7.385000
-360.876007	382.226013	702.781006	25.151875	-48.930000	-0.148750
-86.132004	146.033997	869.372009	23.511250	-14.529375	7.061250
-314.942993	430.964996	813.801025	16.970625	-47.118752	0.809375
-66.001999	159.759003	855.952026	40.258751	-58.883125	-9.686250
-322.994995	-25.742001	798.673035	3.141250	-69.593124	-8.190000
0.976000	157.136002	647.026978	5.267500	-121.226875	-43.290627
-170.921997	-112.423004	985.272034	13.951875	-114.436874	-60.584999
98.881004	47.885002	860.221985	-30.791250	-87.753754	-72.681877
206.546005	3.416000	1208.471069	-27.243126	-126.236252	-50.426250
-124.623001	-213.988007	1200.906982	-55.790001	-65.428123	-22.855000
109.617004	-283.894012	1187.547974	-39.611252	-76.986877	-0.450625
53.985001	-456.402008	1512.190063	-3.438750	4.484375	-28.472500
356.789001	-313.601013	1412.698975	-6.610625	-42.424374	0.026250
33.672001	-222.772003	1569.530029	22.636250	-78.071877	-1.001875
209.413010	-143.350006	1595.638062	-6.921250	-29.575001	-26.980625
154.025009	-99.064003	1174.859985	-34.041874	-21.214375	-16.104376
191.479004	-155.977005	1156.560059	-13.116250	22.846251	-4.921875
157.136002	-121.329002	1051.213013	2.401875	42.240623	-0.398125
87.656998	-195.992996	979.233032	0.367500	20.851250	10.360000
153.110001	-311.466003	928.481018	0.669375	15.400000	0.100625
91.377998	-349.225006	962.397034	7.415625	8.089375	16.209375
112.789001	-400.403992	1045.723022	21.139999	-13.615000	20.693750
245.647003	-338.306000	1137.894043	-2.025625	11.466875	33.932499
115.350998	-361.425018	1025.531982	-16.152500	19.368126	40.827499
91.072998	-380.029999	974.780029	-1.968750	15.365000	30.747499
166.164001	-350.872009	1011.562988	-8.968750	6.654375	32.270000
157.319000	-238.570999	946.720032	-1.015000	-20.527500	48.785625
182.817001	-157.563004	945.500000	25.650625	11.707500	51.515625
335.134003	-87.047005	1114.775024	-3.959375	36.583752	68.140625
210.572006	-89.792000	783.179016	-18.659374	72.926872	63.704376
45.079002	-58.072002	951.234009	5.608750	27.842501	44.406250
88.816002	-20.191000	924.577026	-5.551875	-1.500625	20.365625
128.770996	126.453003	909.876038	-5.376875	-34.720001	-5.915000
95.891998	148.901001	1031.144043	11.458125	-8.570625	11.221875
84.240997	99.430000	1002.656982	-0.735000	-4.851875	11.847500
87.108002	181.597000	1093.485962	-3.123750	-33.665627	-2.922500
185.867004	115.900002	1107.027954	-10.731875	-19.263124	13.881875
155.184006	78.995003	1040.843018	-10.106250	-6.195000	20.264999
127.551003	-32.695999	1036.390015	6.479375	-1.435000	8.343125
102.297005	-22.204000	1035.657959	5.206250	0.350000	1.150625
108.153000	-73.321999	1095.437988	9.419375	6.190625	-2.261875
73.444000	-20.557001	1097.024048	-2.660000	8.439375	-0.380625
55.144001	-94.123001	1229.454956	-4.130000	12.915000	4.016250
-18.483000	-71.308998	1276.973999	-3.941875	5.521250	-3.080000
-64.660004	4.514000	1375.244995	1.281875	-0.118125	-9.664375
75.884003	-61.854000	1445.760986	17.657499	13.575625	2.380000
-44.225002	-4.880000	1432.036011	16.703751	28.918751	8.461250
-22.997000	-106.322998	1330.776001	1.933750	63.148750	22.014999
-126.696999	-128.160995	1322.785034	4.532500	59.491249	-5.560625
154.574005	-106.445000	1310.828979	1.509375	35.931873	-8.268750
42.334000	-179.401001	1057.068970	35.153126	82.026878	15.614375
-74.359001	-190.625000	957.395020	52.762501	109.086250	-14.039375
182.938995	62.037003	1000.033997	42.608124	67.536873	-15.566250
-42.761002	-151.218994	801.966980	45.456249	100.060623	8.356250
-52.154999	-12.078000	618.296021	28.603750	87.031876	3.250625
-209.596008	43.737000	539.728027	24.456249	52.508751	30.139376
-337.085999	-61.000000	413.274994	23.773750	48.041874	-18.462500
-424.377014	29.158001	477.386017	15.544375	0.070000	-21.559999
-519.720032	-31.110001	469.516998	18.690001	25.650625	-26.490625
-449.752991	122.122002	503.433014	17.386250	52.705624	-38.521873
-489.403015	-2.074000	581.330017	20.457500	24.941875	-31.018749
-409.127014	108.885002	579.987976	3.119375	-10.985625	-24.342501
-520.330017	231.678009	546.926025	3.670625	-23.839375	-4.173750
-502.884003	87.230003	648.613037	15.176875	-2.043125	1.295000
-404.490997	156.953003	566.445984	9.008125	-33.643749	-22.207500
-307.196014	146.033997	658.190002	29.172501	-17.972500	11.729375
-174.643005	305.061005	642.085999	38.150002	-61.630627	-2.078125
-194.223999	204.044998	819.413025	-5.941250	-60.523750	23.918125
-143.410995	129.503006	902.494995	-5.543125	-73.460625	0.280000
-265.716003	106.811005	784.033020	-14.971250	-61.315624	-9.786875
-117.547005	22.387001	928.359009	-15.229375	-82.958748	-42.310623
-190.625000	-54.778000	1104.526978	-20.278126	-56.726250	-38.491249
-113.338005	57.767002	827.770020	-31.679375	-93.345001	-44.288124
11.346000	-93.635002	1243.302002	-12.009375	-85.614372	-21.612499
-91.072998	-101.687004	1123.071045	-15.080625	-20.203751	-17.010000
-123.220001	-15.677000	1050.786011	-10.434375	-67.843124	-4.528125
-164.761002	-47.458000	887.367004	-13.829375	-45.657501	-9.485000
109.190002	-164.151001	1120.326050	-12.131875	-71.478752	-16.620625
90.889999	-71.125999	1628.578003	-8.308125	-63.962502	-28.936251
140.727005	-64.598999	1684.393066	-45.329376	-47.980625	-11.270000
113.277000	-100.833000	1494.865967	-69.396248	-65.550629	1.771875
180.376999	-142.679001	1408.672974	-35.695625	-12.053125	1.426250
208.132004	-128.710007	1193.648071	-14.980000	9.161250	6.588750
60.817001	-174.216003	1041.941040	-4.081875	17.473749	12.713750
157.380005	-159.759003	928.237000	0.455000	-9.130625	-5.101250
113.277000	-192.393997	959.530029	12.464375	4.781875	-3.473750
145.180008	-200.751007	969.656006	6.886250	-3.189375	-10.539375
178.912994	-250.100006	962.031006	-3.806250	-7.411250	0.595000
63.257000	-395.157990	882.059998	6.763750	-4.484375	10.714375
89.548004	-485.438019	1093.973999	35.376251	11.125625	-2.060625
110.593002	-433.283020	1098.549072	25.501875	5.013750	13.807500
92.475998	-494.343994	1065.914062	9.646875	7.533750	30.961876
106.994003	-377.528992	1100.013062	5.705000	24.106251	25.956875
167.811005	-299.510010	929.945007	-22.491875	18.020624	50.076248
146.705002	-159.820007	967.398987	20.334999	2.843750	22.951250
259.067017	-66.246002	1115.019043	-0.262500	2.883125	33.031250
251.503006	-27.755001	899.018005	-17.565624	12.236875	45.106251
228.567001	58.011002	999.729004	7.748125	-4.265625	26.136250
292.433990	113.521004	1023.153015	-0.428750	14.783125	18.256874
137.860001	188.612000	991.372009	-13.991250	38.740623	21.525000
131.210999	163.785004	985.820984	-8.295000	3.561250	37.730000
135.968994	133.589996	1060.057983	-9.524375	-0.962500	26.525625
41.968002	204.167007	1004.364990	-10.959375	-8.032500	13.724375
55.083000	109.373001	1085.433960	7.844375	2.331875	8.124375
60.329002	107.604004	1120.509033	1.347500	3.412500	-2.209375
86.375999	68.259003	1139.541016	-0.205625	-3.683750	-0.315000
-60.695000	31.659000	1197.796021	4.309375	11.764375	7.546875
30.134001	-11.407001	1296.311035	8.421875	28.651875	5.328750
-69.235001	7.747000	1204.018066	7.538125	10.692500	2.458750
61.183002	3.782000	1491.999023	10.963750	20.715626	-12.521250
177.936996	109.312004	1450.763062	-5.613125	61.276249	-3.150000
-19.337000	-25.193001	1368.046997	12.547500	38.893749	-2.716875
21.716000	124.867004	1317.416992	8.421875	63.910000	19.424999
-186.111008	-144.203995	1112.761963	22.920626	87.180626	28.542500
-211.487000	-129.563995	1185.352051	17.705626	19.950001	-2.681875
22.691999	-74.847000	1183.888062	34.575626	38.438751	6.221250
-155.123001	-173.789001	936.716003	86.848122	107.673126	3.784375
-155.184006	89.914001	794.341980	71.220627	46.541248	-15.596875
-66.734001	35.196999	857.660034	45.876251	21.988750	4.405625
-227.102997	-120.292000	568.703003	36.837502	72.611877	-6.006875
-153.841995	107.725998	518.744019	-1.251250	39.134377	-17.281250
-393.877014	-38.612999	405.833008	-8.207500	52.176250	-3.749375
-271.694000	76.555000	591.700012	-9.813125	22.798124	-26.490625
-421.937012	-36.234001	458.415009	-8.281875	37.366875	-6.278125
-496.235016	94.000999	501.786011	-3.959375	29.964375	-16.690624
-306.037018	70.577003	471.652008	-5.831875	4.016250	-0.455000
-445.056000	151.218994	353.128998	-4.313750	-7.875000	-9.025625
-270.169006	183.122009	530.517029	21.280001	-19.363750	-12.026875
-275.049011	168.238007	619.760010	31.535000	-36.780624	-6.750625
-284.808990	382.347992	421.571014	47.976250	-52.250626	-2.410625
-198.188995	265.654999	731.268005	47.783749	-43.181252	24.285625
-105.164001	254.796997	715.530029	10.552500	-82.398750	4.707500
-90.279999	107.420998	851.926025	12.731250	-125.684998	-16.003750
12.261000	182.389999	721.934998	8.723750	-99.211876	-34.208126
130.662003	116.510002	911.645020	-17.491249	-96.534378	-9.944375
-170.738998	-115.412003	931.775024	-91.581879	-59.351250	-22.163750
231.800003	-70.150002	1073.843994	-64.828751	-118.995628	-53.125626
44.774002	-227.529999	1698.666992	-17.854376	-49.533749	-30.708124
-30.073000	-53.375000	1284.964966	-42.831249	-41.299999	-51.331875
124.440002	-146.766006	1930.894043	-59.548126	-99.815628	-30.458750
193.979996	-244.365997	1587.159058	-60.935001	-27.916876	-16.629375
89.121002	-120.414001	1386.041992	-34.636875	-16.834999	-13.151250
149.815994	-205.997009	1320.284058	-8.553125	9.375625	2.358125
74.542000	-255.834000	1225.489990	-3.911250	24.058125	13.794375
60.756001	-301.096008	1071.770020	0.135625	5.621875	5.285000
48.373001	-331.962006	984.356995	10.259375	14.231875	-3.526250
98.149002	-406.321014	993.872986	-2.646875	4.523750	1.111250
137.677002	-490.623016	911.828003	-19.337500	11.204375	11.445000
92.232002	-443.835999	822.096985	-9.533125	10.653125	10.941875
176.473007	-541.557983	1026.203003	-22.491875	64.938126	10.290000
178.119995	-279.868011	768.539001	0.271250	-0.835625	35.170624
185.013000	-197.091003	1185.473999	12.066250	46.514999	34.238750
109.922005	-88.206001	1002.535034	-15.526875	11.773125	36.286251
128.039001	-108.092003	1005.585022	-10.386250	-28.848749	37.708126
175.557999	-38.003002	1091.594971	10.784375	-12.971875	19.652500
236.557999	41.358002	1050.968994	3.806250	25.230625	20.243126
-44.285999	158.173004	967.398987	-0.984375	20.225624	39.396873
31.598000	133.651001	1053.652954	-6.610625	4.103750	21.371876
86.681000	213.378006	1082.872070	-8.894375	-24.609375	2.730000
-14.457000	0.305000	1079.273071	1.960000	-5.302500	11.851875
62.341999	-90.402000	1007.658997	-10.066875	-16.161249	-0.008750
46.848000	-230.824005	1015.955017	-11.405625	-5.621875	-7.301875
95.038002	-284.321014	1111.724976	2.616250	-6.212500	-12.127500
118.766998	-165.615005	1093.973999	22.592501	-13.693750	-15.496250
26.962000	-108.945999	1298.019043	10.246250	-4.252500	-17.438749
28.548000	-18.788000	1411.357056	-7.450625	-1.465625	-3.618125
-66.734001	-32.818001	1417.578979	-13.033125	23.279375	9.808750
-27.267000	-31.354000	1471.015015	-13.002500	18.239374	16.091249
77.958000	-38.430000	1437.464966	5.040000	23.450001	1.688750
178.059006	-95.221001	1345.416016	15.176875	66.893753	19.783751
178.242004	-125.293999	1240.678955	7.608125	89.538750	32.838749
-116.265999	-205.692001	1100.806030	13.693750	102.926247	20.680626
-66.429001	-157.257996	1087.568970	0.778750	64.010628	-10.565625
1.525000	-171.897995	920.002014	14.420000	95.248123	7.236250
-188.367996	-208.315002	688.812012	17.290001	89.831879	3.692500
-97.966003	-163.723999	781.288025	16.905001	63.297501	-5.888750
-95.221001	-227.895996	606.950012	-4.130000	55.457500	7.778750
-213.195007	-245.341995	500.688019	3.053750	64.098122	9.603125
-319.457001	-149.815994	412.115997	1.623125	36.343124	2.821875
-428.951996	-115.595001	443.958008	14.293125	25.248125	1.338750
-503.738007	-85.278000	512.338989	8.181250	15.710625	2.598750
-420.106995	-39.040001	520.513000	-0.109375	-4.318125	9.651250
-505.628998	-49.348999	654.651978	4.265625	-11.388125	-2.016875
-337.817993	97.417000	577.304016	-6.142500	-6.265000	-7.612500
-280.843994	29.951000	568.580994	-8.741250	-30.957500	-7.844375
-283.894012	155.550003	671.182983	-1.015000	-25.738125	-26.849375
-228.567001	281.881012	625.250000	25.025000	-46.081875	-29.325624
-134.809998	136.212997	823.195007	48.413750	-77.017502	-35.896873
124.928001	12.078000	946.963989	2.778125	-78.229378	-24.867500
-152.622009	-130.540009	1124.901001	13.702500	-70.008751	-27.615000
-15.738000	-152.561005	870.897034	-0.861875	-42.306252	-52.110626
-74.481003	-210.632996	887.671997	-4.755625	-92.413124	-47.088123
-7.259000	-342.393005	1044.563965	-5.481875	-59.994373	-63.888126
-15.189000	-238.632004	882.853027	-18.436251	-51.655624	-67.690002
143.167007	-371.916992	1368.169067	-5.416250	-109.904373	-43.855000
-7.747000	-288.102997	1423.801025	-4.641875	-28.629999	-31.438749
251.442001	-437.675018	1467.416016	-22.238125	-90.943123	-17.141251
108.580002	-303.779999	1266.482056	-22.474375	-3.053750	-28.748125
194.529007	-291.701996	1205.848022	-8.732500	-34.982498	-36.981876
254.126007	-243.634003	1194.685059	-11.939375	-5.013750	-10.758125
181.475006	-260.104004	1087.630005	-12.757500	25.051250	13.444375
129.014999	-293.410004	1046.821045	-19.035625	14.896875	12.411875
190.197998	-383.140991	1018.151001	-11.803750	7.761250	7.485625
154.818008	-403.820007	977.890991	16.611876	20.588751	9.668750
155.428009	-457.683014	979.171997	27.339375	20.571251	11.375000
161.710999	-486.902008	959.652039	25.414375	10.591875	18.462500
94.488998	-383.812012	844.789001	25.195625	9.563750	37.029999
130.356995	-351.970001	901.824036	27.925625	-1.846250	33.079376
186.598999	-335.988007	953.979004	25.055626	10.473750	31.075624
160.369003	-248.209000	1021.932983	13.085625	2.541875	28.297501
191.173996	-235.704010	1024.739014	2.362500	12.779375	37.371250
203.130005	-289.445007	1100.196045	-10.303125	13.282500	38.486874
198.860001	-116.388000	957.700012	-15.023750	-10.784375	36.920624
164.944000	-173.179001	968.557983	-15.942500	-9.677500	68.661247
232.227005	-137.798996	1069.269043	-13.405000	-18.335625	51.401875
275.963989	-8.845000	965.934998	-17.215626	-9.616250	41.496876
148.718002	29.158001	964.653992	-14.625625	-11.147500	33.814377
224.236008	112.789001	995.885986	-14.551250	-16.056250	18.865000
199.287003	81.984001	1054.567993	-4.431875	-19.971874	27.033125
153.598007	33.549999	1039.806030	3.311875	-6.492500	22.098125
202.581009	8.967000	1080.370972	7.564375	-6.216875	8.540000
121.634003	-31.781000	1006.439026	6.129375	-1.067500	8.771875
81.801003	-105.712997	1032.302979	6.615000	1.728125	-1.995000
167.078995	-134.505005	1098.427002	8.120000	1.063125	-11.462500
59.902000	-160.003006	1137.223022	5.630625	-1.894375	-4.777500
36.844002	-173.910995	1228.601074	-10.202500	9.117500	11.217500
25.925001	-227.835007	1300.458984	8.833125	23.135000	-7.126875
144.326004	-79.605003	1367.437012	8.277500	-7.525000	-3.386250
91.072998	-193.126007	1438.562988	7.126875	18.646250	13.951875
202.581009	-145.790009	1370.730957	14.896875	53.698750	30.051874
54.229000	-170.983002	1313.879028	18.615625	53.410000	27.763750
44.469002	-159.576004	1392.385986	21.398125	90.352501	15.500625
32.879002	-112.972000	1200.846069	18.191250	99.846252	17.184999
-146.705002	-205.326004	1206.396973	5.149375	83.260628	5.818750
64.598999	-26.169001	985.515991	46.125626	67.895622	3.775625
35.014000	-43.249001	937.447998	24.548124	47.652500	-13.256250
7.503000	-98.637001	556.869019	38.294376	84.118126	12.630625
-136.518005	-279.562988	540.947998	47.897499	76.938751	-1.028125
-213.622009	-15.494000	465.552002	46.961250	49.743752	-18.064375
-316.162994	-92.232002	415.653992	46.173752	52.036251	-6.720000
-367.830017	-73.261002	467.687012	21.004375	47.315624	-7.962500
-422.791016	46.116001	408.273010	0.914375	7.428750	-6.199375
-436.149994	11.468000	453.108002	2.878750	12.556250	-4.475625
-366.427002	73.931999	392.473999	-1.443750	-1.701875	-8.225000
-411.384003	142.923004	464.820007	-8.303750	-24.158751	-1.150625
-308.416016	192.210999	485.987000	14.686875	-49.004375	-6.387500
-142.862000	195.626999	633.851013	24.395000	-57.133125	-12.407500
-115.167999	170.128998	786.656006	18.484375	-59.906876	3.535000
-278.343018	189.770996	737.612000	2.436875	-71.653748	-6.803125
-58.132999	49.532001	1011.014038	-16.799999	-92.124374	-34.698124
15.372000	38.247002	1089.338013	-15.382500	-98.231873	-27.584375
141.154007	98.820000	935.007996	9.773750	-92.631874	-38.701248
85.095001	-9.272000	1223.843018	-13.063750	-89.315628	-11.799375
120.841003	-217.709000	1065.791992	-14.621250	-57.207500	-9.471875
132.309006	-182.451004	1066.890015	-45.740623	-76.781250	-40.604374
31.171000	-210.511002	1167.600952	-8.920625	-65.743126	-33.298126
-75.152000	-330.192993	1332.605957	-20.002501	-26.696251	-32.571877
254.186996	-326.899017	1690.066040	-33.634998	-49.275623	-25.803749
117.791000	-221.917999	1414.651001	-26.477501	-65.629372	15.150625
13.847000	-286.334015	1512.983032	-26.276251	22.268749	-3.246250
177.449005	-215.025009	1323.822021	-35.621250	-22.041250	-28.336876
106.689003	-184.464005	1074.576050	-25.563126	-5.057500	-23.397499
212.768005	-367.647003	1137.771973	-15.255625	2.388750	-13.991250
197.518005	-412.360016	955.442993	-7.910000	16.100000	-4.313750
128.710007	-537.226990	1006.927002	4.851875	16.388750	13.658750
211.852997	-513.559021	884.377991	-7.713125	5.215000	23.353750
132.126007	-484.096008	793.854004	11.480000	20.488125	41.518749
133.712006	-441.395996	1039.317993	15.491875	25.908751	32.935001
269.864014	-425.536011	943.914001	2.034375	21.761250	36.483124
-13.054000	-154.391006	868.822998	1.798125	27.776875	16.467501
367.647003	-194.529007	1213.594971	-32.243752	-18.628750	6.781250
229.238007	129.320007	887.306030	-50.063126	-92.666878	32.808125
348.920013	-121.756004	899.994019	-11.182500	-1.220625	31.320625
216.488998	-121.572998	959.652039	-15.820000	4.165000	63.481251
54.961002	-213.134003	899.384033	18.340000	41.426876	66.950623
212.829010	-94.306000	971.486023	22.469999	28.603750	12.438125
266.386993	91.865997	1056.337036	17.539375	-8.833125	2.375625
230.580002	80.093002	1179.862061	26.355000	-5.840625	10.810625
192.820999	112.606003	1086.654053	8.163750	-0.310625	14.275625
149.084000	87.413002	1101.050049	0.074375	-25.781876	21.223125
219.417007	-44.469002	1246.291016	-10.653125	28.284374	16.458750
29.158001	-24.217001	1221.769043	-6.825000	37.253124	11.913125
23.973000	-84.545998	1243.484985	22.811251	12.582500	2.384375
-21.350000	-74.237000	1429.718018	21.367500	42.621250	0.332500
-44.957001	-64.111000	1602.653076	23.585625	54.578125	3.377500
84.607002	-76.189003	1643.889038	-19.162500	70.774376	12.271875
-70.150002	-70.698997	1280.817017	6.090000	87.447502	9.301250
61.671001	-208.986008	1336.448975	31.911249	94.084373	-7.013125
-3.782000	-177.509995	1068.049072	21.052500	104.243126	-0.735000
-138.165009	-177.388000	870.775024	38.443127	115.596252	-1.627500
-265.838013	-164.334000	753.655029	53.900002	95.816872	-12.254375
-172.751999	-139.751007	655.078979	44.585625	49.962502	-3.329375
-218.746002	-270.839996	511.119019	70.258125	50.973125	-9.410625
-190.320007	-73.566002	481.412018	35.061249	16.996876	-10.867500
-298.045990	-121.024002	522.587036	37.086876	47.831875	4.602500
-361.973999	-40.564999	410.652008	26.355000	50.474377	-0.638750
-500.078003	178.729996	325.191010	12.403125	2.130625	-3.990000
-425.779999	27.511000	552.416016	18.121250	9.611875	-1.360625
-532.408020	80.093002	491.294006	-8.146250	7.240625	-18.340000
-458.597992	166.102997	564.859985	-14.056875	-19.363750	-21.236250
-357.399017	127.185005	599.934998	4.891250	-39.340000	-9.065000
-396.804993	128.343994	587.491028	17.465000	-46.108124	-5.678750
-275.597992	134.688004	609.512024	19.193125	-67.847504	24.351250
-300.058990	93.025002	814.777039	-6.435625	-65.519997	-8.465625
-15.677000	226.615005	783.239990	-16.992500	-98.603752	-31.753750
-178.181000	154.757004	880.169006	-6.772500	-111.260628	-10.718750
-15.921000	107.604004	1051.395996	-9.016875	-101.333748	-35.953751
173.179001	124.806000	1040.721069	1.071875	-125.566872	-11.589375
-3.599000	132.309006	1057.251953	-0.183750	-94.250626	-12.691875
230.458008	16.775000	1154.302979	-31.259375	-80.626877	-28.984375
225.699997	-30.134001	1070.489014	-53.235001	-81.746872	-29.535625
313.906006	-169.091995	1223.660034	-29.400000	-63.616875	-39.935001
256.139008	-78.690002	1059.753052	-36.496250	-49.923126	-10.626875
206.790009	-278.891998	1448.018066	-17.570000	-45.648750	11.536875
164.639008	-269.558990	1401.657959	2.170000	-5.302500	-3.828125
150.548004	-217.709000	1398.608032	-5.171250	-33.385624	-15.951250
195.322006	-264.496002	1377.075073	-11.401250	-44.935623	-23.953125
253.150009	-212.829010	1283.806030	-5.989375	8.662500	-24.272499
260.897003	-209.901001	1184.802979	-13.908125	13.514375	-14.586250
294.141998	-248.697006	1012.721985	-26.753124	-9.931250	4.340000
278.037994	-314.149994	899.750000	-9.257500	28.231874	18.326876
229.360001	-327.020996	866.078003	15.010625	30.476250	1.255625
244.122009	-333.364990	895.846008	19.626249	25.449375	25.353125
161.650009	-372.649017	922.075989	21.332500	37.655624	35.314999
193.492004	-284.015991	880.535034	9.108750	11.589375	28.931875
251.807999	-257.175995	917.379028	-4.497500	2.082500	37.839375
262.239014	-213.378006	941.901001	-22.395624	8.561875	36.382500
196.298004	-95.709000	905.484009	-23.248751	12.665625	41.571251
343.369019	-207.766006	1103.001953	-12.980625	25.930626	27.177500
249.367996	-10.248000	956.296997	-12.858125	-3.963750	31.981251
259.127991	67.771004	1030.838989	-30.839375	13.138125	25.768749
157.807007	59.841000	957.517029	-34.938751	9.948750	22.347500
192.089005	124.500999	1085.860962	-24.080000	16.187500	7.660625
163.236008	151.035995	994.056030	-0.546875	-0.161875	11.248125
88.511002	83.875000	1071.648071	0.796250	-11.147500	14.468125
133.589996	61.671001	1065.243042	-10.933125	-15.942500	0.918750
95.953003	-69.600998	1047.004028	-5.490625	-27.308750	7.783125
161.589005	-115.655998	1311.865967	20.982500	-14.297500	7.214375
136.822998	-81.191002	1237.019043	23.839375	16.524376	6.846875
78.873001	-178.852005	1311.622070	7.586250	3.644375	15.526875
5.612000	-203.984009	1389.336060	16.065001	9.091250	5.407500
91.682999	-32.818001	1407.575073	50.981876	34.103127	-2.546250
71.736000	-123.037003	1530.855957	41.041874	67.361877	4.510625
40.625999	-47.824001	1623.697998	38.377499	105.699997	3.128125
0.305000	-93.940002	1477.237061	27.746250	130.720627	-3.736250
90.889999	-152.682999	1456.436035	4.961250	89.801247	-2.839375
71.125999	-71.187004	947.085999	33.775002	86.384377	9.183125
-43.371002	-73.078003	973.559998	50.391251	89.635002	-4.064375
4.392000	-13.176001	894.138000	34.308750	75.761871	4.786250
54.900002	-27.572001	792.390015	25.904375	122.968124	3.460625
-198.494003	-75.396004	449.204010	-4.440625	122.198128	18.235001
-213.500000	63.318001	203.923004	5.862500	88.611252	31.145624
-540.947998	-15.860001	-11.468000	25.270000	39.046875	29.959999
-528.138000	-6.039000	115.839005	14.021875	42.223125	16.113125
-625.250000	-22.326000	236.557999	7.039375	34.020000	9.861250
-656.238037	-36.478001	261.263000	9.043125	16.598749	-13.440000
-622.809998	74.419998	402.843994	8.833125	-15.137500	-31.023125
-540.276978	159.514999	352.580017	3.093125	-36.623123	-32.921875
-389.058014	286.516998	447.252014	19.761875	-47.145000	-33.779373
-285.480011	313.479004	593.164001	18.340000	-70.743752	4.243750
-101.015999	436.394012	601.398987	31.876249	-71.710625	11.239375
-309.330994	133.162994	604.937012	28.752501	-68.363747	11.130000
-98.271004	293.714996	814.044983	1.715000	-123.436249	-16.874374
-3.538000	228.628006	649.101013	10.189375	-126.783127	-32.619999
-13.847000	25.254000	927.200012	-15.977500	-137.410004	-34.873123
285.541016	129.686005	1072.318970	-10.819375	-143.184998	-34.015625
65.879997	-197.639999	1136.186035	-11.891250	-68.188751	-8.741250
-30.012001	-77.470001	1288.807983	-60.506248	-112.354378	-42.319374
85.827003	-351.908997	1415.749023	-77.358749	-103.775002	-48.982498
314.760010	-282.002991	1689.333984	-47.656876	-66.810623	-52.504375
140.178009	-320.677002	1602.042969	-32.965626	-26.499374	-12.363750
145.973007	-299.937012	1644.804077	-50.198750	-10.495625	-15.951250
254.492004	-319.152008	1445.822021	-42.770000	1.675625	-6.873125
73.749001	-276.085999	1110.626953	-15.837500	35.560001	2.340625
156.831009	-347.639008	1058.838013	-3.193750	29.343124	-0.612500
190.747009	-375.576996	919.514038	4.099375	20.037500	15.491875
121.451004	-486.658020	840.091980	22.356251	37.607498	28.748125
139.873001	-511.729004	851.316040	31.924376	16.546249	26.140625
12.078000	-463.416992	830.148987	16.065001	41.842499	53.265625
40.748001	-429.013000	838.200989	3.981250	-4.904375	36.106876
203.923004	-302.011017	907.984985	-2.896250	-19.639376	37.703751
265.227997	-348.675995	925.796997	21.218750	-1.610000	47.136250
269.924988	-106.567001	1117.337036	22.513750	3.364375	19.175625
298.290009	33.916000	1163.270020	-10.613750	10.823750	40.529999
157.501999	-35.685001	963.799988	-22.872499	28.818125	57.942501
197.822998	97.661003	929.884033	-15.233750	-6.422500	19.560625
236.740997	184.951996	1111.541992	-24.303125	3.368750	-0.717500
104.859001	190.625000	1110.566040	-42.980000	2.668750	-1.426250
127.673004	220.332001	1178.337036	-24.088751	-21.975624	-3.071250
99.369003	194.895004	1061.948975	-10.416875	-1.395625	18.283125
-22.936001	71.248001	999.546021	-4.921875	-7.612500	23.524376
81.739998	-63.135002	1161.744995	4.913125	-0.595000	8.981875
-8.723001	-53.192001	1193.404053	9.817500	-8.929375	3.915625
-18.239000	-164.212006	1460.889038	7.713125	-13.505625	-3.482500
87.596001	-165.188004	1576.789062	5.613125	4.396875	1.929375
1.769000	-250.770996	1601.555054	4.935000	55.063751	22.855000
20.923000	-204.594009	1646.268066	19.512501	56.682499	13.776875
78.202003	-190.869003	1401.718994	3.548125	99.855003	10.858750
53.253002	-179.096008	1260.869995	34.041874	103.271873	17.342501
69.052002	-179.584000	1134.234009	52.119373	106.553123	23.261875
-64.355003	-124.013000	914.390015	73.845627	134.750000	5.740000
-105.103004	-132.796997	915.854004	59.744999	97.330627	3.552500
4.148000	-98.392998	724.252991	23.135000	83.282501	25.318125
-69.967003	-232.104996	448.289001	12.753125	81.510628	23.660000
-211.548004	-175.863007	401.623993	7.879375	45.193748	3.101875
-341.050995	-98.454002	141.581009	10.456250	65.309998	-16.576876
-458.658997	17.629000	237.046005	20.006874	29.636250	2.178750
-483.425018	-99.735001	270.169006	13.348125	27.457500	8.190000
-452.619995	62.037003	379.907990	6.033125	-14.192500	-7.940625
-405.406006	162.199005	320.127991	25.221874	-27.558125	-10.228750
-248.391998	176.046005	435.601013	40.494999	-30.218124	-23.016874
-235.337997	182.695007	469.028992	11.497500	-59.290001	-11.055625
-284.503998	253.576996	392.351990	25.147499	-72.922501	-21.428749
-357.765015	217.281998	706.562988	59.635624	-72.423752	-44.218124
-178.425003	291.580017	826.428040	55.733124	-84.634377	-56.262501
-202.581009	258.029999	828.502014	43.343124	-129.749374	-33.162498
-42.456001	154.634995	1136.552002	-10.854375	-88.895622	-29.308125
-68.990997	197.152008	1231.895020	-16.025625	-128.270630	-3.963750
-19.093000	-65.270004	1469.185059	-14.205625	-26.053125	-17.863125
47.153000	3.111000	1060.973022	-46.943748	-43.806873	-25.545626
127.185005	-69.723000	1397.631958	-41.269375	-111.855621	9.148125
29.646000	-218.807007	1430.572021	-0.455000	2.515625	-3.911250
57.340000	-226.737000	1276.364014	-24.263750	-13.330625	-35.520626
204.654999	-69.479004	1357.799072	-51.064999	-75.613129	-9.699375
53.985001	-147.498001	1121.546021	-30.668751	12.591250	18.895624
211.059998	-128.770996	1207.312012	-41.903751	-34.518749	-11.418750
117.242004	-305.427002	1159.975952	-19.853750	23.191875	4.956875
130.662003	-334.890015	1142.530029	-5.468750	1.141875	1.347500
122.061005	-386.373993	1119.655029	2.555000	11.668125	6.816250
96.441002	-465.795990	992.348022	1.391250	23.799999	21.848749
-5.673000	-450.424011	844.057007	4.029375	15.951250	28.056875
-36.355999	-515.328003	954.406006	-7.490000	17.386250	20.055000
59.230999	-512.705017	975.695007	-33.166874	5.022500	18.930626
160.369003	-398.390991	919.453003	-10.088750	-3.766875	24.093124
164.395004	-341.600006	981.367981	21.398125	24.709999	29.946875
230.397003	-124.745003	1094.218018	-11.169375	11.746875	45.744999
198.615997	50.813000	1016.260010	-19.473125	-11.860625	24.648750
315.308990	215.025009	1169.614014	-21.459375	-8.015000	24.031876
135.115005	170.434006	1009.184021	-24.583124	4.891250	26.823126
186.354996	287.859009	1013.393005	-7.052500	-8.951250	25.305000
180.132996	241.682007	1085.556030	-17.189375	-19.853750	45.526249
-40.504002	79.971001	1018.273010	-19.411875	8.767500	30.327499
102.297005	184.708008	996.069031	12.193125	-21.765625	13.107500
103.334000	32.025002	1065.243042	9.791250	-2.502500	33.634998
13.664001	-35.257999	1224.758057	-6.195000	-13.374375	8.557500
6.039000	-165.126999	1376.281982	-17.504375	-8.281875	8.045625
-67.649002	-141.824997	1403.365967	-2.187500	16.712500	3.303125
-29.707001	-226.981003	1431.426025	8.085000	24.543751	-5.455625
84.850998	-228.139999	1422.337036	11.130000	46.598125	-5.792500
-85.643997	-182.634003	1309.426025	4.252500	40.131874	-4.856250
123.403000	-210.999008	1476.443970	11.313750	52.548126	-4.987500
21.533001	-223.748001	1288.076050	12.403125	100.056252	23.743126
89.487000	-301.218018	1298.690063	34.221249	107.065002	31.281250
62.159000	-320.250000	841.434021	30.393126	133.699997	60.733749
-187.453003	-133.468002	698.815979	22.653749	97.684998	8.505000
-296.093994	-43.920002	738.893005	5.512500	88.934998	-17.889376
-232.776001	-8.967000	727.302979	1.391250	74.064377	-15.977500
-385.459015	-73.321999	620.247986	3.653125	79.248749	6.081250
-287.493011	-101.565002	654.957031	7.258125	69.693748	9.034375
-374.235016	-124.988998	481.778015	18.567499	81.851875	27.986876
-474.274994	-161.406006	318.359009	22.693125	69.006874	16.817499
-484.401001	-110.836998	302.925995	4.558750	39.764374	2.900625
-565.591980	84.119003	247.354996	9.550625	33.604374	4.458125
-607.682007	107.970001	186.171997	7.157500	-25.860624	11.060000
-526.002991	179.645004	220.759003	11.904375	-32.213123	-3.360000
-446.337006	197.945007	358.802002	28.415625	-49.284374	-28.778749
-398.208008	255.468002	588.283997	13.177500	-68.267502	-39.388126
-274.134003	202.947006	637.205994	13.326250	-66.158752	-32.873749
-395.829010	158.600006	808.494019	9.900625	-79.638123	-24.399376
-237.107010	85.217003	920.184998	6.260625	-85.325623	-24.320625
-248.941010	-23.302000	898.957031	13.995625	-91.559998	-19.796875
-159.210007	52.094002	946.842041	18.969999	-124.114372	-49.809376
-64.538002	-33.306000	1016.504028	21.354376	-115.058128	-56.428749
-63.074001	-75.945000	973.987000	-21.214375	-115.018753	-68.131874
28.670000	-287.614990	1141.432007	-26.897499	-112.301872	-65.660004
204.289001	-239.486008	1295.151978	11.611250	-98.415627	-57.924999
70.455002	-337.330017	1380.369019	14.074375	-49.700001	-2.883125
-1.037000	-412.177002	1322.541016	-15.955625	-40.381248	9.340625
83.142998	-281.636993	1550.375977	-6.120625	-71.154999	9.633750
6.222000	-167.322998	1434.415039	-7.555625	-27.295626	3.430000
73.749001	-207.583008	1447.774048	-20.037500	-13.851250	-6.418125
106.994003	-184.768997	1368.229980	-27.107500	5.175625	-13.129375
108.397003	-289.627991	1051.884033	-21.525000	17.176250	-5.499375
95.831001	-292.067993	936.898987	-4.418750	20.619375	-8.925000
157.624008	-396.438995	915.304993	-1.321250	12.604375	1.347500
27.145000	-480.497009	903.104980	2.935625	23.533125	12.245625
32.879002	-480.924011	926.528992	4.672500	15.277500	0.323750
193.553009	-385.214996	910.119995	2.471875	3.920000	2.751875
94.733002	-298.472992	929.822998	10.784375	15.413125	21.376249
143.533005	-311.282990	1004.548035	3.692500	12.617500	30.791250
174.216003	-238.998001	1002.962036	-9.213750	8.907500	45.517502
173.484009	-185.988998	1013.454041	-6.654375	-8.636250	49.406876
90.341003	-122.732002	1018.760986	-17.285625	-6.597500	49.826874
76.494003	-20.923000	887.367004	-6.811875	-12.823125	46.305000
188.429001	-108.640999	1078.419067	-3.058125	-15.023750	50.876877
112.606003	-134.626999	1027.849976	-5.810000	-8.579375	59.556873
274.438995	-131.759995	1026.874023	-3.193750	-16.240000	40.858124
228.384003	34.526001	1174.799072	-6.956250	-3.373125	17.749374
154.513000	97.356003	1067.744019	-8.386875	11.261250	10.933125
105.286003	137.432999	1071.831055	-6.326250	4.847500	3.648750
52.154999	91.500000	1123.802979	-2.961875	-17.653126	17.806250
-41.602001	96.868004	1354.322021	12.302500	-6.580000	7.319375
6.466000	5.246000	1577.032959	11.528125	21.030624	13.234375
-158.783005	-74.419998	1443.808960	11.121250	18.983126	28.056875
-36.966000	-325.739990	1753.384033	29.977501	48.317501	4.935000
103.334000	-105.469002	1374.756958	12.407500	62.282501	-20.934376
-43.249001	-27.816000	1275.937012	23.642500	42.866249	-9.191875
-9.577000	-91.256004	1379.453979	55.295624	114.305626	27.444374
-109.128998	-100.589005	1214.448975	42.966873	110.442497	47.433750
-172.751999	-102.358002	1079.760986	57.181252	97.544998	28.494375
-60.512001	81.556999	731.939026	40.963123	86.642502	-23.331875
-180.376999	-74.542000	633.119019	24.228750	95.926247	-12.608750
-180.682007	-67.771004	470.737000	29.999374	81.532501	-12.770625
-243.878006	-138.165009	435.295990	17.626875	58.821877	11.287500
-428.342010	-151.524002	302.621002	33.420624	69.094376	1.299375
-280.416992	-1.952000	221.063995	25.121250	33.035625	-7.669375
-432.307007	67.527000	181.962997	18.178125	20.440001	4.510625
-423.523010	167.201004	152.988007	30.502501	8.715000	2.607500
-414.860992	221.369003	279.196991	17.058125	-22.522499	6.658750
-415.898010	262.239014	330.925018	11.436250	-31.119375	-1.723750
-332.877014	302.316010	682.285034	12.556250	-65.463127	-28.161875
-312.990997	99.917999	660.690979	-0.354375	-45.727501	-17.285625
-405.040009	270.108002	714.249023	-13.133750	-69.540627	-15.623125
-260.653015	200.263000	726.997986	11.160625	-89.127502	-16.038750
-381.554993	29.280001	848.265991	5.166875	-97.168747	-2.843750
-53.558002	110.105003	1010.830994	-22.456875	-121.485001	-34.969376
-104.798004	-178.303009	1296.067017	-29.382500	-92.032501	4.834375
-202.276001	-131.393997	1129.536987	-59.841251	-80.128128	-32.786251
17.873001	-122.792999	1056.947021	-31.876249	-97.706879	-78.876877
-9.333000	-185.806000	969.473022	-16.590000	-93.598747	-61.061874
-41.968002	-208.070999	1006.561035	-47.311249	-92.544373	-26.950001
198.677002	-246.867004	1382.808960	-29.688749	-94.535004	-33.337502
133.834000	-335.317017	1464.915039	0.643125	-48.282501	-26.910625
157.319000	-292.312012	1529.087036	-13.304375	-39.278751	-27.461876
194.406998	-160.613007	1463.145996	-24.613750	-44.428123	-7.761250
151.097000	-213.195007	1298.506958	-22.036875	-4.392500	6.024375
202.703003	-249.612000	1172.176025	-26.963125	-0.945000	2.887500
200.080002	-310.368011	1092.021973	-16.366875	6.755000	1.973125
157.929001	-385.520020	1022.299011	0.240625	21.879375	1.986250
147.070999	-503.188995	984.234985	13.308750	16.419374	13.256250
170.983002	-524.416992	938.179993	22.863750	31.893749	30.012501
27.084000	-454.998993	799.953979	25.545626	30.655624	33.385624
188.307007	-391.253998	939.033997	21.323750	27.846874	36.299374
172.264008	-315.248016	895.419006	0.367500	30.572500	51.436874
219.112000	-232.593002	880.596008	-20.431250	16.953125	46.619999
278.160004	-186.904007	920.794983	-17.871876	7.004375	41.479374
194.163010	-83.204002	932.567993	-18.116875	-18.143126	32.900002
238.632004	-71.125999	1070.671997	-13.391875	-14.205625	37.555000
137.311005	197.884003	1011.441040	-15.500625	6.146875	26.534374
220.880997	175.863007	1065.120972	-4.125625	-3.889375	11.326875
165.981003	179.035004	1135.759033	-9.423750	-7.061250	7.196875
116.022003	171.227005	1184.315063	-7.271250	-9.130625	-6.702500
88.511002	130.723007	1273.557983	-2.511250	-0.739375	11.886875
24.400000	11.895000	1391.593018	7.717500	5.810000	17.946251
8.296000	-42.395000	1540.188965	16.603125	17.500000	20.531876
-91.439003	-87.230003	1504.748047	28.866249	11.186875	21.594999
49.043999	-159.514999	1674.572021	25.033751	41.208126	2.310000
90.158005	-94.855003	1434.903076	16.143749	32.965626	15.719375
117.973999	-182.512009	1363.776978	34.549374	91.271248	21.363125
-55.998001	-151.524002	1283.562012	30.471874	117.184372	10.561250
107.420998	-73.688004	1028.886963	39.646252	138.788132	-5.845000
-168.177002	26.657000	949.038025	53.431873	98.419998	-7.958125
-85.095001	14.823000	784.155029	31.246250	112.765625	-12.586875
-99.917999	-66.368004	434.869019	3.482500	98.428749	18.506250
-292.860992	-215.635010	360.144012	-0.848750	67.943748	16.183125
-311.588013	-93.818001	295.484009	-11.274375	67.803749	6.807500
-438.712006	-130.479004	307.562012	7.818125	36.378124	9.476250
-466.772003	13.237000	489.830017	29.181250	43.435001	-14.831250
-554.307007	-28.975000	484.339996	13.501250	10.408125	-14.385000
-558.515991	61.243999	513.254028	11.930625	8.435000	-16.988125
-517.036011	155.184006	566.140991	9.148125	-12.836250	-0.770000
-475.617004	145.850998	503.372009	16.279375	-27.352501	7.306250
-360.571014	153.292999	492.575012	9.388750	-44.279373	11.116875
-288.713013	198.738007	439.993011	12.639375	-70.301872	13.615000
-355.507996	253.089005	394.791992	36.793751	-74.029373	1.150625
-226.126999	219.234009	699.548035	34.860001	-95.305000	-10.399375
-338.306000	284.321014	736.330994	24.605000	-116.453751	-34.737499
53.680000	170.434006	1094.401001	5.963125	-114.546249	-37.200626
-15.921000	280.234009	1017.968018	-4.978750	-107.095627	-7.240625
158.539001	13.176001	1130.390991	-3.675000	-101.132500	7.857500
-109.433998	-7.076000	1001.376038	-29.815624	-73.788750	-20.842501
261.933990	-4.575000	965.752014	-44.646873	-82.534378	-42.218750
97.173004	-202.581009	1273.802002	-66.548126	-85.863747	-20.580000
78.445999	-155.671997	1323.273071	-57.741249	-53.519375	-48.439999
209.046997	-209.169006	1363.289062	-19.980625	-48.965000	-49.634377
225.822006	-242.048004	1579.900024	-22.295000	-57.531250	-20.553749
134.078003	-180.316010	1277.583984	-17.465000	-8.028125	-17.836876
139.263000	-220.759003	1239.458984	-13.523125	-0.371875	6.768125
112.301003	-226.859009	1071.831055	-7.446250	10.517500	3.206875
159.332001	-263.032013	1053.836060	1.443750	-1.089375	-5.810000
189.466003	-332.389008	1070.550049	0.560000	4.974375	-1.098125
113.704002	-335.988007	956.174988	-2.432500	6.505625	4.016250
231.373001	-399.183990	964.837036	8.675625	4.786250	16.957500
191.479004	-392.412994	918.903992	14.420000	8.977500	36.006248
115.412003	-291.031006	890.539001	15.960000	14.520625	27.125000
343.186005	-316.162994	1087.995972	3.640000	-0.958125	35.573124
241.987000	-103.395004	1049.199951	-7.048125	27.593124	36.715000
267.667999	-146.339005	1081.651978	-29.478750	14.625625	58.821877
116.570999	-53.313999	1023.885010	-16.528749	12.013750	43.316875
340.563019	-32.390999	1109.651001	-9.909375	19.258751	34.619373
212.035995	-12.627000	982.466003	-37.804375	6.370000	37.485001
156.464996	94.428001	970.570984	-31.504375	-1.583750	36.080624
217.526001	-49.776001	928.846985	-34.540627	23.086876	41.509998
134.382996	72.101997	880.840027	-24.801874	-0.988750	22.850624
152.195007	37.942001	1018.944031	-5.035625	-17.797501	15.662500
122.792999	51.789001	1092.815063	11.348750	-29.483126	5.770625
172.813004	-45.628002	1198.161987	20.138124	-0.065625	7.625625
134.626999	-53.008999	1201.151001	9.065000	-0.433125	1.085000
113.887001	-176.167999	1371.036011	8.050000	18.646250	0.975625
104.126999	-89.487000	1398.242065	4.318125	28.962500	0.227500
23.302000	-181.048004	1433.805054	11.860625	35.297501	16.047501
138.531006	-104.798004	1419.104004	15.601250	47.888748	11.165000
-13.481000	12.261000	1208.348999	2.209375	44.161251	28.844376
-15.860001	-40.931000	1245.558960	16.808750	59.963749	26.748751
-73.383003	-47.640999	1105.320068	21.367500	60.248123	7.761250
-55.388000	-161.100998	1285.087036	2.668750	89.796875	-2.747500
-73.688004	-233.691010	1265.018066	5.665625	97.173126	-14.144375
137.981995	-177.143997	1122.156006	27.234375	88.375000	-14.358750
-130.662003	-223.503998	931.104004	37.935623	95.672501	-20.212500
-34.342999	-0.915000	743.101990	34.234375	80.653122	-10.705625
-347.700012	-171.166000	592.371033	40.875626	91.958122	28.030624
-375.333008	-190.197998	591.822021	16.235624	86.196251	21.105000
-420.412018	-161.040009	492.575012	-1.312500	68.617500	17.539375
-467.260010	-113.338005	415.653992	12.652500	52.994373	-4.751250
-582.427979	61.487999	323.300018	6.943125	11.860625	-16.069374
-571.814026	5.673000	362.766998	23.695000	12.683125	-17.198126
-398.390991	-6.527000	490.989014	8.780625	-7.564375	-9.966250
-511.546021	95.221001	576.877014	-0.463750	-14.630000	-7.332500
-424.743011	120.231003	614.575012	-0.848750	-13.396250	-5.678750
-388.386993	179.949997	551.806030	10.784375	-34.142502	1.041250
-324.764008	122.915001	561.505005	25.370625	-35.192501	-3.631250
-319.457001	179.218002	571.936035	12.744375	-46.160625	-9.502500
-296.520996	179.706009	575.169006	18.431875	-69.899376	-11.440625
-303.231018	78.750999	816.973022	7.061250	-70.481247	-21.350000
-173.117996	15.860001	1048.346069	23.598749	-90.514374	-21.551250
-102.906998	-9.211000	1090.924072	-1.299375	-85.697502	-31.740625
-10.736000	66.246002	1034.987061	1.203125	-94.845627	-29.124374
34.160000	-212.279999	1102.941040	-2.913750	-78.898750	22.793751
-117.668999	78.323997	986.187012	14.608125	-78.859375	-23.100000
-16.165001	-67.039001	1075.917969	6.501250	-80.075623	-27.343750
-91.256004	-153.537003	1199.992065	-43.347500	-90.772499	-11.843125
14.152000	-175.375000	1246.962036	-40.564999	-68.735626	-25.821251
-31.110001	-147.376007	1191.146973	-15.010625	-53.204376	-32.020626
91.682999	-234.850006	1194.258057	-54.328751	-62.269375	-4.265625
155.671997	-269.376007	1216.279053	-33.289375	-19.197500	-12.687500
192.210999	-327.509003	1236.652954	-34.820625	-25.436251	-12.158125
223.382004	-263.764008	1251.719971	-15.273125	-35.975624	-23.069374
273.950989	-246.928009	1257.270996	-2.445625	-7.752500	-16.305626
220.514999	-237.107010	1166.930054	-11.948125	-7.595000	3.570000
186.416000	-290.177002	1111.847046	-8.115625	10.920000	1.137500
232.166000	-304.268005	969.168030	-2.664375	17.657499	1.758750
171.897995	-390.217010	944.341003	1.456875	13.024375	8.990625
244.122009	-342.636993	906.398987	16.690624	21.573126	11.895625
146.888000	-359.290009	911.401001	2.572500	6.938750	22.168125
164.639008	-325.618011	872.483032	0.691250	15.771875	22.653749
194.834000	-321.774994	931.226013	4.270000	-2.047500	27.833750
255.102005	-279.014008	963.312012	-1.421875	-21.573126	26.976250
311.832001	-309.880005	878.338989	6.951875	9.130625	37.957500
142.007996	-131.210999	952.942017	19.792500	5.516875	25.200001
325.373993	-16.653000	1033.279053	5.648125	-10.176250	33.320000
285.419006	-179.766998	1049.443970	-15.133125	-5.009375	54.617500
184.768997	-72.590004	1036.938965	4.799375	5.617500	28.393749
267.363007	-36.722000	967.582031	-24.049376	3.018750	16.747499
201.788010	85.888000	929.213013	-17.815001	2.830625	6.133750
288.347015	37.088001	1061.461060	-22.334375	-6.755000	5.376875
205.326004	108.640999	1008.513000	2.113125	1.273125	7.721875
155.184006	33.793999	1115.202026	12.621875	0.319375	20.396250
145.973007	24.217001	1118.557007	-0.411250	-13.545000	14.713125
125.903999	25.132000	1093.546997	6.943125	8.133125	14.735000
115.473000	-61.549000	1229.394043	2.568125	6.750625	9.165625
141.520004	-6.283000	1316.807007	-0.319375	3.622500	9.795625
133.956009	-75.579002	1375.427979	6.588750	32.698750	8.946875
52.459999	-53.497002	1309.670044	15.535625	55.693748	10.893750
-17.141001	-173.300995	1382.992065	-3.815000	81.243752	13.807500
20.557001	-68.807999	1268.006958	-9.975000	59.526249	5.853750
-22.997000	-148.839996	1200.052979	25.830000	58.786877	0.398125
-3.721000	-163.479996	1295.640015	17.622499	69.667503	-7.560000
-65.636002	-253.882004	1186.083984	15.820000	81.357498	-2.550625
9.394000	-229.665009	1213.900024	37.533127	90.960625	-6.006875
6.100000	-240.156998	1011.624023	51.826248	110.495003	14.888125
-122.487999	-211.059998	908.595032	57.106876	135.095627	33.311249
-339.098999	-182.512009	510.936005	33.232498	78.041252	13.387500
-347.028992	-28.670000	471.834991	35.533749	53.532501	-14.083125
-306.524994	-49.471001	414.251007	30.524376	36.080624	-17.360001
-359.106995	70.882004	498.796997	21.148750	26.788124	-10.285625
-496.052002	45.079002	416.507996	23.082500	50.916248	0.621250
-492.209015	87.961998	444.201996	13.615000	19.862499	-5.324375
-521.671997	153.537003	443.470001	-0.879375	6.505625	-0.078750
-523.135986	180.194000	469.821991	-5.897500	-2.043125	0.240625
-458.903015	247.598999	401.319000	-4.151875	-30.594376	-0.459375
-350.445007	202.764008	443.042999	1.929375	-52.101875	-11.825625
-375.576996	160.735001	555.039001	11.755625	-60.488750	-12.600000
-281.209991	254.736008	673.135010	10.766875	-76.684998	-21.923124
-244.061005	83.447998	589.809021	1.378125	-84.008751	-23.918125
-79.361000	233.996002	838.994019	13.107500	-108.679375	-32.563126
-129.807999	-18.788000	829.173035	2.152500	-99.028122	-5.110000
-145.912003	10.004000	909.692993	-7.962500	-101.955002	-20.768126
150.792007	13.481000	1186.693970	14.643125	-133.284378	-43.596874
-44.957001	-104.371002	1211.032959	-10.416875	-112.529373	-38.618126
245.830002	-55.021999	1375.244995	-20.916876	-104.431252	-45.106251
284.076996	-94.855003	1415.993042	-15.478750	-77.870628	-17.937500
154.513000	-65.879997	1392.081055	-36.977501	-59.298752	-18.685625
202.031998	-190.076004	1368.046997	-55.816250	-35.879375	-5.245625
102.175003	-310.184998	1319.063965	-47.459999	-3.819375	-1.645000
143.716003	-245.647003	1271.972046	-13.028750	-5.363750	-18.274376
188.001999	-259.372009	1245.315063	-3.972500	-1.750000	-3.692500
113.521004	-339.769989	1116.787964	-8.824375	11.134375	9.178750
186.416000	-433.954010	1050.664062	-7.533750	3.876250	10.876250
9.211000	-440.114990	1039.379028	-1.715000	6.772500	15.815625
167.139999	-385.764008	868.152039	32.628750	21.730625	28.179375
199.348007	-328.302002	960.140015	24.815001	17.237499	35.402500
113.399002	-177.632004	840.518982	12.770625	24.395000	36.583752
137.677002	-154.025009	891.637024	0.958125	13.094375	29.828751
167.139999	-97.844002	1027.605957	-6.523125	2.498125	28.188126
225.456009	3.721000	1095.255005	1.789375	-11.873750	29.750000
273.402008	80.276001	1238.360962	1.750000	-4.208750	55.505627
170.007004	-111.813004	1090.009033	-31.241875	17.600624	71.360626
191.479004	-104.249001	960.994019	-30.003750	4.659375	47.538750
241.682007	67.344002	979.965027	-13.803125	11.624375	20.956249
116.632004	187.026001	825.695984	-11.375000	18.134375	23.266251
179.218002	183.975998	1143.201050	-7.157500	1.771875	13.921250
135.542007	219.050995	1108.125977	-27.527500	-39.265625	12.888750
127.185005	160.003006	967.216003	-32.900002	-26.538750	19.713751
134.626999	43.249001	1061.765991	-6.798750	-14.240625	13.558125
145.240997	-8.296000	1068.415039	-4.799375	13.356875	13.063750
71.431000	-124.988998	1146.556030	-2.441250	1.960000	-1.925000
112.362000	-102.785004	1198.588989	8.452500	0.988750	-7.875000
52.338001	-166.652008	1295.334961	19.608749	21.306250	-2.651250
-14.884000	-116.448997	1312.292969	11.488750	42.271252	6.951875
73.444000	-76.920998	1298.690063	18.974375	50.924999	1.802500
-69.295998	-65.879997	1235.005981	15.137500	64.019379	6.291250
-11.590000	-139.018997	1260.321045	19.731251	58.511250	-3.758125
-66.306999	-69.235001	1157.109009	13.776875	71.767502	9.791250
-169.153000	-180.072006	1172.420044	23.821875	74.480003	-13.072500
-9.577000	-33.733002	1234.395996	30.913750	67.208748	-4.628750
-461.526001	-197.335007	1176.263062	42.371876	93.345001	-8.461250
-55.083000	12.993000	1408.245972	67.812500	101.058128	-24.504375
-191.479004	-91.805000	983.929993	36.338749	88.987503	-11.935000
-38.552002	-41.174999	676.612000	-2.323125	52.701248	-0.896875
-367.585999	-245.341995	735.171997	-2.165625	61.407501	5.823125
-177.570999	-55.449001	537.593018	-2.563750	80.736252	-13.536250
-362.705994	-32.879002	447.007996	7.778750	47.389999	-6.273750
-443.714020	-49.043999	354.898010	1.960000	49.026249	3.482500
-474.335999	53.741001	352.458008	-9.463125	25.287500	6.523125
-571.936035	15.921000	345.565002	-4.182500	29.583750	16.458750
-521.489014	117.425003	435.174011	-9.235625	6.711250	2.738750
-557.418030	173.179001	373.808014	-11.965625	0.844375	9.581250
-429.317993	160.673996	535.885010	3.924375	-47.411877	-25.694374
-434.808014	165.492996	517.036011	11.567500	-54.464375	-26.915001
-295.606018	167.384003	619.577026	16.760626	-45.294376	-24.193750
-200.690002	61.915001	783.423035	12.022500	-49.017502	-13.540625
-489.403015	268.095001	628.544006	8.067500	-57.916248	-9.323125
-178.852005	35.014000	799.710022	28.997499	-81.348747	-25.869375
-351.604004	192.820999	841.190002	-1.260000	-92.548752	-27.299999
-118.706001	109.495003	829.173035	1.015000	-109.046875	-46.720627
-226.432007	-51.056999	986.736023	16.327499	-98.542503	-34.641251
-2.196000	67.954002	1045.784058	13.855625	-117.888748	-31.154375
-44.834999	-153.354004	1056.885986	-16.100000	-79.826248	-12.005000
11.285000	-199.835999	1060.729004	-41.461876	-87.635628	-26.145000
215.635010	-73.688004	1152.167969	-13.212500	-119.739372	-31.889376
206.607010	-227.652008	1356.945068	-30.585625	-76.422501	4.020625
134.749008	-224.541000	1254.587036	-26.503750	-65.887497	-6.842500
278.587006	-198.372009	1389.213989	-21.336876	-73.845627	-13.698125
161.589005	-208.803009	1400.193970	-34.216873	-48.619373	-12.320000
199.408997	-306.220001	1394.703979	-28.665001	-32.794998	-29.605625
265.166992	-333.975006	1235.250000	-23.734375	-29.938126	-15.211875
218.501999	-367.830017	1093.729980	-4.296250	6.370000	11.878125
262.666016	-364.841003	1007.536987	4.007500	10.526250	18.226250
220.637009	-367.097992	916.830017	3.920000	23.625000	24.430000
183.305008	-286.028992	770.002991	9.747500	39.528126	24.268126
224.175003	-277.001007	799.466003	12.893125	21.870625	19.573750
244.548996	-297.558014	853.085022	14.879375	15.544375	27.418125
223.199005	-337.635010	972.583984	13.483750	26.792500	26.556250
295.179016	-300.546997	1022.054993	1.986250	11.383750	34.505627
192.210999	-346.723999	1007.109985	4.313750	32.698750	40.757500
221.247009	-200.507004	1097.817017	0.008750	-3.758125	26.967501
298.899994	-155.061996	1032.973999	6.846875	11.961250	35.787498
243.451004	-76.737999	1051.701050	-3.473750	14.288750	54.254375
183.731995	-40.077000	1006.255981	-14.179375	14.984375	58.996876
235.764999	149.755005	918.476990	-14.091875	26.166876	41.374374
39.345001	94.611000	913.109009	-9.559375	18.143126	24.329374
217.831009	38.368999	1079.212036	-8.802500	8.627500	9.703750
100.710999	88.389000	975.329041	-15.124375	3.084375	11.086250
81.129997	89.914001	999.363037	-6.033125	-10.447500	2.576875
27.205999	19.642000	1028.216064	-7.525000	4.331250	3.478125
150.669998	-28.182001	1179.495972	3.762500	-18.195625	3.736250
39.161999	-43.066002	1262.760986	1.487500	9.996875	17.766874
6.344000	-39.833000	1341.268066	10.819375	-1.176875	9.489375
48.678001	-104.309998	1453.447021	8.719375	20.597500	6.632500
-57.035000	-51.667000	1529.270020	8.951250	33.674374	3.250625
49.288002	-40.869999	1437.037964	15.430625	39.825626	0.280000
76.860001	-148.108002	1507.005005	-8.745625	56.450626	14.218750
-29.889999	-181.048004	1409.343994	-5.652500	79.099998	16.318750
-60.024002	-296.154999	1435.329956	21.581875	87.666252	1.391250
14.823000	-305.244019	1120.630981	33.928123	129.259369	20.440001
-65.758003	-281.149017	845.155029	36.448124	118.833748	9.441250
-97.966003	-105.957001	733.708008	32.663750	92.750000	3.556875
-247.964996	-153.475998	481.046021	40.985001	97.510002	13.505625
-293.532013	-136.152008	424.132996	29.299376	98.004372	-3.850000
-207.216995	-73.200005	417.300995	7.756875	52.246250	-4.847500
-308.476990	-102.480003	411.872009	-3.438750	68.372498	10.438750
-532.957031	23.058001	223.992004	6.203750	49.061249	16.445625
-606.767029	30.927000	180.072006	26.429375	42.363125	4.917500
-577.975037	72.711998	270.412994	21.214375	7.940625	-13.129375
-581.330017	106.017998	373.929993	10.937500	-24.626875	-20.313126
-481.229004	184.341995	442.067017	22.570625	-46.427502	-25.996250
-419.558014	259.493988	530.090027	40.595627	-45.871876	-33.061874
-316.773010	164.699997	546.804016	33.228127	-63.354374	-13.545000
-440.786011	157.929001	657.518982	10.408125	-74.983124	6.037500
-171.348999	75.091003	721.996033	14.122500	-83.383125	-17.469376
-184.830002	-35.990002	835.395020	-2.865625	-99.378128	-14.000000
-76.127998	51.179001	892.674011	7.179375	-124.739998	-44.331875
41.053001	-0.366000	1130.146973	16.996876	-102.733749	-24.705626
54.351002	17.323999	1252.146973	63.262501	-97.846878	-11.182500
-105.042000	4.941000	1257.759033	34.724377	-60.799374	-6.291250
-15.250000	78.690002	1166.686035	-13.335000	-101.915627	-38.342499
175.985001	-17.812000	1392.203003	-33.201874	-106.518127	-37.126251
152.805008	-25.802999	1180.655029	-42.901249	-103.193123	-33.053123
290.115997	-226.188004	1485.289062	-18.847500	-55.046249	-24.386250
200.385010	-166.652008	1430.389038	-38.215626	-17.023125	-14.997500
154.818008	-139.690002	1226.099976	-47.573750	-49.936249	5.578125
132.431000	-220.454010	1293.505005	-36.907501	-28.826876	4.243750
161.162003	-247.843002	1120.386963	-20.938749	1.264375	-9.769375
259.188995	-282.186005	1080.249023	-7.406875	8.098125	-2.996875
231.494995	-373.320007	983.807983	-8.863750	30.721251	13.658750
235.887009	-455.548004	973.499023	-14.813750	40.394375	30.148125
88.389000	-443.958008	872.971008	-5.350625	45.535000	37.730000
73.078003	-410.225006	795.440002	-4.125625	10.731875	28.113750
214.232010	-359.351013	852.291992	14.087500	-11.615625	24.115000
123.890999	-309.575012	919.087036	7.188125	16.576876	36.483124
198.860001	-316.528992	1009.794006	6.098750	22.649376	25.230625
236.740997	-210.449997	1034.010986	-7.686875	23.730000	23.988125
229.298996	-97.051003	1002.413025	-19.534374	-2.826250	12.285000
271.328003	133.589996	1197.490967	-28.520624	-16.975000	10.858750
177.632004	118.828003	1049.260986	-32.130001	-15.701875	60.860626
137.311005	-16.775000	1100.989014	-24.184999	23.638124	54.424999
177.083008	74.786003	1120.509033	-19.315624	1.881250	27.063749
137.921005	31.903000	1048.529053	-6.107500	-13.011250	24.670626
92.720001	103.151001	989.237000	-1.225000	15.417500	11.462500
97.904999	14.335000	972.218018	-1.461250	-15.225000	6.177500
101.198997	12.322001	977.890991	-0.205625	-4.348750	-8.636250
129.686005	-108.945999	1141.737061	-1.745625	-1.964375	-7.984375
84.302002	-76.127998	1127.036011	1.001875	10.591875	-2.686250
64.781998	-186.050003	1262.578003	-3.731875	22.054375	5.258750
22.387001	-101.198997	1306.742065	6.881875	23.830626	1.233750
-4.575000	-107.542999	1318.576050	5.687500	29.697500	8.666875
-51.118000	-162.565002	1436.367065	-4.086250	36.745625	10.976875
-92.659004	-105.164001	1328.213989	10.351250	49.328125	-8.701875
86.558998	-257.786011	1511.823975	9.813125	62.439999	11.987500
-11.895000	-189.404999	1320.467041	26.486250	86.091248	40.403126
-71.980003	-351.787018	1240.495972	38.434376	81.952499	15.658125
-126.453003	-211.975006	953.002991	38.408127	58.887501	-18.195625
-59.597000	-114.131004	987.041016	15.264375	106.531250	-38.342499
-206.363007	-134.199997	739.807983	-17.478125	77.262497	-12.495000
-300.364014	-285.419006	734.317993	3.036250	120.102501	-14.148750
-151.341003	-139.994995	679.234985	1.246875	75.158127	1.798125
-363.132996	-217.281998	501.968994	8.588125	35.380627	44.852501
-411.018005	-262.666016	484.584015	28.253750	73.876251	-4.711875
-276.208008	-145.240997	553.819031	1.050000	34.063751	-11.344375
-494.343994	-92.049004	382.104004	16.393126	37.275002	7.455000
-429.562012	-103.761002	455.852997	25.825624	16.581249	10.093125
-569.496033	-30.134001	484.339996	9.896250	2.563750	-4.834375
-490.196014	-7.869000	473.665009	-6.033125	-14.450625	-13.335000
-629.520020	154.391006	464.393005	6.116250	-30.725624	-10.968125
-414.800018	113.887001	645.502014	14.568750	-42.306252	-10.692500
-238.083008	24.948999	643.916016	2.953125	-61.416248	8.964375
-408.944000	78.873001	747.738037	1.185625	-51.979374	13.785625
-210.694000	-68.502998	693.143005	-9.537500	-47.893124	-2.585625
-267.118988	111.081001	754.936035	-1.693125	-94.263748	-9.546250
-137.555008	-79.543999	822.463013	6.654375	-62.755001	-22.671249
-114.557999	-95.586998	997.777039	33.009377	-91.595001	-13.033125
-47.640999	-171.897995	1130.025024	35.730625	-68.643753	-18.357500
3.477000	42.944000	1217.255005	22.150625	-87.224373	-21.402500
-46.604000	-65.026001	1088.972046	14.866250	-78.837502	-5.932500
8.235000	-86.681000	1305.644043	-8.601250	-67.913124	-21.805000
113.826004	-5.429000	1177.177979	-14.328125	-110.140625	-30.751875
67.222000	-76.067001	1220.365967	-13.383125	-56.048126	-16.931250
53.436001	-120.536003	1303.265015	-24.600624	-45.451874	-31.080000
197.578995	-96.563004	1341.084961	-24.740625	-60.090626	-30.410625
85.643997	-172.264008	1281.732056	-37.187500	-32.112499	-17.994375
123.769005	-200.445999	1269.958984	-16.218124	3.845625	3.189375
133.162994	-341.234009	1196.026978	-16.218124	9.555000	6.829375
94.245003	-302.498993	1023.213989	-15.736875	13.925625	-9.095625
130.966995	-319.518005	965.691040	-13.378750	8.732500	-19.823126
165.249008	-342.759003	879.070984	-10.390625	0.568750	-10.915625
99.917999	-394.182007	929.091003	1.465625	15.802500	4.353125
69.295998	-438.589996	940.254028	21.861876	29.986250	13.138125
41.785000	-439.566010	841.556030	29.456875	45.412498	3.723125
102.968002	-360.265991	901.824036	8.015000	2.069375	-7.923125
141.703003	-212.097000	929.945007	5.735625	12.525625	3.018750
258.945007	-226.188004	1098.000000	-2.436875	17.451876	16.646875
292.312012	-198.615997	1167.600952	-11.615625	6.098750	24.228750
224.846008	-32.452000	1039.562012	1.111250	13.606250	27.103125
322.873016	35.319000	1258.430054	12.761875	17.456249	26.836250
147.742004	151.341003	1071.160034	-9.261875	7.223125	41.759377
42.517002	43.920002	1052.250000	-16.922501	5.551875	51.725624
203.923004	72.956001	1044.380981	-3.390625	0.236250	35.402500
104.126999	59.048000	865.773010	-6.120625	13.142500	47.180000
101.503998	19.215000	994.971008	12.009375	-2.476250	23.821875
42.517002	85.034004	928.846985	-8.999375	-6.151250	28.905624
59.414001	51.240002	999.729004	-1.531250	-3.123750	16.183125
0.793000	53.253002	940.559021	-14.656250	-14.866250	11.340000
31.842001	-48.617001	1057.557007	-12.726875	-20.610624	4.803750
12.200000	-64.416000	1136.063965	3.460625	-1.789375	-3.031875
62.646999	-54.046001	1140.029053	-2.454375	-4.720625	2.576875
80.153999	-87.961998	1262.943970	4.738125	4.418750	16.419374
49.288002	-51.423000	1225.307007	5.280625	10.386250	13.811875
65.514000	44.713001	1303.203979	-2.012500	-10.342500	10.705625
-39.528000	97.844002	1064.816040	14.958125	0.056875	-13.667500
173.484009	26.535000	1439.172974	8.798125	43.513748	8.356250
114.497002	-67.466003	1387.994019	-0.590625	55.921249	11.580625
93.878998	-65.879997	1293.443970	3.801875	79.275002	12.608750
-2.318000	-122.182999	1251.902954	3.788750	112.853127	5.648125
-2.074000	-139.201996	1170.589966	4.965625	80.828125	2.611875
-148.656998	-155.550003	1074.209961	17.806250	94.832497	3.670625
-103.578003	-219.112000	853.755981	30.926874	107.358124	2.463125
-167.384003	-142.984009	784.033020	40.586876	83.549377	-4.624375
-187.757996	-177.753998	692.106018	50.776249	78.553123	2.970625
-412.604004	-170.983002	636.840027	9.891875	53.908749	7.857500
-384.421997	-30.988001	662.703979	32.335625	61.468750	-7.039375
-446.032013	-111.264000	669.841003	37.778126	31.390625	-8.330000
-512.033997	-17.323999	624.762024	25.178125	33.735626	-5.175625
-501.175995	30.622000	554.184998	10.609375	31.132500	6.168750
-548.634033	-28.121000	515.999023	-2.345000	12.306875	0.323750
-451.095001	93.330002	509.533020	-6.575625	7.498750	-17.583124
-434.076019	126.514000	388.631012	-1.019375	-7.774375	-7.328125
-426.938995	160.735001	425.231018	-4.641875	-28.306250	2.113125
-321.347992	211.548004	440.114990	-1.583750	-59.950626	-15.623125
-150.059998	322.080017	668.682007	21.656250	-65.485001	-23.135000
-160.369003	134.322006	700.036011	21.923124	-83.894997	-2.030000
-266.143005	231.007004	792.512024	19.980625	-74.427498	-7.546875
-74.481003	31.842001	783.301025	9.349375	-89.534378	-6.676250
-201.178009	17.323999	821.364990	-19.796875	-131.591248	-22.636250
201.178009	-44.408001	1193.281982	-21.485624	-124.543121	-45.088749
-21.106001	-215.574005	1089.520996	-38.373123	-119.529373	-20.304375
113.459999	-145.973007	1344.135010	-30.309999	-115.290001	-36.045624
55.083000	-189.283005	1388.482056	-6.103125	-44.848125	-26.280624
162.382004	-207.766006	1340.901978	-43.763126	-48.676250	19.875626
-123.525002	-185.988998	1215.608032	-66.150002	-5.560625	3.771250
116.570999	-247.416000	1044.442017	-52.408127	-31.565624	-33.718124
200.141006	-282.308014	1267.763062	-18.768749	-30.458750	-25.296249
138.958008	-370.575012	1393.484009	1.553125	-0.739375	-18.296249
147.559006	-340.136017	1286.368042	9.200625	0.516250	-17.771250
124.135002	-319.213013	1266.604004	3.246250	-11.860625	-10.570000
144.630997	-339.891998	1104.405029	-5.018125	1.470000	-0.258125
83.692001	-468.480011	1036.817017	3.683750	26.635000	7.726250
88.206001	-457.011993	907.375000	21.559999	39.305000	19.945625
52.826000	-340.929016	1010.343018	23.533125	42.875000	14.328125
98.697998	-257.968994	974.536011	3.530625	17.749374	13.763750
170.373001	-217.831009	905.179016	-2.463125	4.790625	36.846249
57.096001	-210.876999	990.700989	2.598750	33.232498	42.433125
156.709000	-186.477005	1015.345032	-27.444374	20.488125	36.006248
198.860001	-117.913002	1015.283997	-28.603750	-25.786249	15.763125
226.309998	31.171000	982.588013	-2.953125	-12.460000	16.463125
216.123001	55.693001	1037.427002	-12.871250	12.635000	32.195625
47.945999	125.598999	1001.986023	-10.263750	-4.357500	25.270000
-13.115000	-11.224000	1041.208984	-7.630000	5.433750	39.654999
-45.262001	-29.524000	932.080017	-23.336250	-17.583124	25.659374
99.735001	-49.653999	1061.583008	-0.726250	-14.341250	11.672500
123.280998	99.674004	1163.697021	3.845625	-7.218750	4.410000
74.542000	83.204002	1090.009033	-25.466875	-7.345625	20.715626
59.658001	-0.671000	1047.187012	-14.511875	7.673750	19.451250
-51.728001	-2.928000	994.605042	-8.684375	11.309375	8.728125
34.221001	-58.621002	1152.046021	-15.343125	2.664375	1.920625
-82.411003	-84.850998	1194.258057	-1.806875	-2.073750	-1.955625
-57.950001	-57.706001	1462.047974	5.438125	28.529375	27.553749
-262.299988	-188.550995	1536.223999	5.285000	37.091251	21.109375
4.209000	-142.251999	1498.831055	-2.428125	32.956875	-6.930000
-4.941000	-308.355011	1332.178955	-6.111875	66.762497	6.391875
15.311000	-243.572998	1471.563965	13.720000	96.009377	3.001250
212.645996	-384.910004	1255.380005	38.386250	115.626877	43.194374
-86.132004	-319.700989	912.559998	42.258125	137.571869	49.555626
-97.661003	-151.768005	807.578979	45.080002	101.141251	28.336876
-206.912003	-152.865997	619.515991	34.544998	72.830627	17.027500
-297.313995	-171.531998	499.773010	30.559376	81.965622	3.920000
-426.207001	-133.406998	473.177002	37.051876	59.040627	-1.815625
-477.630005	-157.319000	456.036011	37.401875	61.810001	-14.358750
-482.998016	7.259000	394.182007	29.185625	43.850624	-25.620001
-592.187988	70.515999	324.703003	15.386875	24.167500	-7.210000
-520.085999	-8.296000	378.871002	-1.382500	21.406876	-2.423750
-529.174988	96.258003	397.292999	3.307500	-6.531875	-4.685625
-541.862976	58.621002	455.304016	2.371250	-10.272500	5.040000
-534.299011	102.236000	460.001007	6.265000	-27.711250	9.778125
-457.744019	181.535995	605.669006	15.929375	-48.059376	6.803125
-290.054993	161.955002	669.901978	32.300625	-71.566254	-6.877500
-160.856995	188.490005	732.854004	1.500625	-81.431877	2.218125
-340.807007	180.987000	913.536011	9.651250	-88.580627	-16.493750
-78.445999	244.854004	932.751038	15.798125	-100.979378	-38.040627
-94.793999	45.383999	1041.026001	-3.902500	-90.978127	-31.941875
-127.246002	221.247009	1037.488037	-5.206250	-95.322502	-29.618750
-79.300003	-95.465004	969.595032	-10.259375	-95.558746	-30.905001
-76.189003	-107.909004	1173.640015	-17.605000	-104.448753	-46.379375
89.669998	-115.473000	1216.706055	-23.520000	-106.299377	-37.896252
-36.112000	-231.128998	1122.034058	-45.451874	-74.405624	-17.233126
81.618004	-295.057007	1218.597046	-30.349375	-49.656250	-27.671875
-4.697000	-309.757996	1223.477051	-39.856251	-26.193125	-27.601875
111.934998	-280.112000	1202.920044	-41.986874	-61.079376	-39.331249
99.979004	-248.757996	1119.899048	-27.746250	-37.244373	-26.687500
71.125999	-244.792999	1159.792969	-6.658750	-4.462500	-33.958752
244.305008	-247.416000	1245.437012	-11.466875	-15.496250	-21.980000
190.747009	-309.880005	1262.943970	-13.908125	-10.718750	-7.415625
174.826004	-374.417999	1210.301025	-9.353750	4.707500	-3.871875
219.356003	-401.441010	1124.291016	-11.296250	2.008125	6.650000
99.735001	-514.596008	915.976013	-10.517500	16.681875	24.184999
155.244995	-487.756012	897.554016	21.971251	33.901875	21.940624
122.487999	-435.845001	878.278015	19.385626	35.914375	25.383751
138.104004	-344.894012	875.106018	9.480625	21.634375	34.934376
131.699005	-322.385010	939.827026	3.648750	13.750625	46.353127
123.280998	-325.252014	923.052002	-9.143750	5.761875	44.668751
137.005997	-236.436005	961.786987	-6.790000	1.316875	29.671249
212.889999	-236.557999	922.137024	-16.555000	2.690625	23.865625
214.232010	-135.847000	1193.831055	-22.820000	-6.833750	2.375625
215.695999	-5.795000	1100.806030	6.391875	1.636250	21.315001
96.868004	83.570000	1122.034058	-35.936249	-27.838125	25.908751
222.040009	33.549999	1086.898071	-21.678125	-37.970627	37.611874
102.175003	56.181000	1050.480957	-13.720000	15.238125	44.419376
74.359001	51.362000	1031.998047	-8.820000	0.345625	39.480000
