A_X [mg]	A_Y [mg]	A_Z [mg]	G_X [dps]	G_Y [dps]	G_Z [dps]
4.941000	-22.448000	1004.975037	4.182500	-15.185625	4.773125
15.128000	-20.191000	1004.364990	0.043750	-3.968125	3.587500
12.993000	-34.526001	1007.781006	-3.788750	0.848750	1.316875
4.758000	-29.646000	1017.114014	-7.013125	10.521875	-1.645000
-5.490000	-26.474001	1016.382019	-6.400625	5.805625	-3.640000
-2.257000	-24.644001	1016.260010	-4.825625	-5.578125	-3.749375
2.257000	-28.670000	1018.090027	-4.077500	-3.893750	-2.143750
-0.183000	-28.792000	1035.230957	-2.690625	-5.950000	-1.216250
5.551000	-39.771999	1028.643066	-4.077500	-3.963750	-1.124375
15.982000	-35.319000	1020.652039	-4.383750	-5.145000	-0.936250
15.494000	-37.637001	1010.465027	-0.389375	2.218125	-1.286250
14.213000	-39.223000	1009.855042	0.013125	-5.687500	-0.573125
21.289000	-36.783001	1022.177002	1.920625	0.625625	0.647500
15.067000	-36.600002	1019.066040	1.662500	-3.596250	0.993125
15.982000	-40.564999	1021.627991	0.503125	-5.306875	0.498750
28.182001	-39.406002	1003.999023	2.275000	-10.228750	-0.275625
42.456001	-42.882999	1007.658997	-2.314375	-6.881875	-1.277500
36.112000	-39.894001	1014.429993	-2.441250	1.268750	-1.010625
34.403999	-46.116001	1006.561035	-2.773750	-6.370000	-0.809375
36.112000	-38.125000	1036.451050	0.533750	-10.325000	-1.548750
-0.488000	-41.358002	1065.974976	-6.243125	1.631875	-1.111250
-82.899002	-51.362000	1085.433960	-12.779375	-14.665000	-4.375000
-128.770996	-88.389000	1160.890991	-23.957500	-10.906875	-8.172500
-123.708000	-76.920998	1114.531006	-19.783751	-5.433750	-11.440625
-124.257004	-49.776001	1084.702026	-12.569375	10.508750	4.768750
-108.945999	-116.570999	1028.338013	-9.450000	34.378750	15.640625
-110.593002	-110.166000	948.244995	-3.018750	48.002499	17.482500
-90.767998	-83.447998	905.057007	-1.841875	15.526875	17.154375
-35.685001	-105.286003	950.624023	-2.406250	2.261875	11.532500
-29.463001	-158.050995	923.296021	21.949375	4.151875	8.938125
30.500000	-80.946999	887.733032	24.246250	-26.521250	0.612500
79.910004	-75.822998	916.830017	38.027500	-12.560625	4.812500
100.772003	-66.124001	878.278015	27.514376	-25.589375	-4.073125
236.253006	-3.111000	1025.898071	30.441250	-16.358126	-8.811250
289.872009	31.659000	1038.586060	6.457500	-13.492500	-12.293750
340.441010	21.533001	1068.232056	-12.998125	8.540000	-19.722500
271.023010	13.176001	1163.331055	-20.146875	4.497500	-23.156876
292.128998	-21.228001	1092.937012	-23.480625	8.295000	-20.816250
275.658997	-18.849001	1057.068970	0.857500	33.643749	-14.218750
245.708008	20.984001	1060.484985	4.331250	13.553750	-4.493125
248.819000	-40.138000	1057.557007	-9.314375	8.920625	-0.288750
191.356995	11.407001	1061.094971	8.128750	23.839375	1.981875
213.134003	30.500000	986.736023	10.850000	11.606875	26.683125
115.839005	-21.045000	991.677002	13.715625	4.090625	28.726250
74.969002	-17.690001	959.895996	26.031250	-14.695625	7.770000
7.137000	35.624001	990.700989	17.618126	12.617500	-4.186875
-89.792000	9.821000	930.372009	-3.513125	-11.515000	-14.393750
-89.181999	77.470001	945.317017	-6.146875	17.163124	-10.071250
-203.862000	23.180000	926.712036	-19.276251	-13.046250	-6.024375
-228.201004	-25.620001	1051.884033	-19.280624	-19.980625	-4.182500
-220.820007	-28.059999	954.588989	-7.590625	-12.915000	-5.460000
-219.112000	-12.322001	1003.755005	-6.304375	-6.943125	-3.456250
-241.194000	-66.551003	1040.050049	-9.905000	-4.169375	-2.218125
-231.983002	-125.111000	1068.781006	-24.303125	3.867500	-12.254375
-203.313004	-90.584999	1070.794067	-11.287500	17.486876	-19.293751
-74.114998	-37.514999	1017.236023	-8.951250	3.163125	-20.098749
-43.859001	-45.872002	1040.294067	6.720000	10.373125	-6.348125
-14.091001	-23.851000	1080.797974	-2.813125	-3.071250	5.928125
-51.910999	-91.500000	1001.803040	2.751875	9.235625	14.612500
-50.751999	-72.834000	972.645020	11.948125	-0.433125	11.834375
-37.393002	-40.992001	998.447998	11.256875	4.830000	7.888125
-24.034000	-46.360001	1015.588989	12.888750	-1.662500	5.075000
-22.875000	-17.141001	1035.109009	17.443125	6.545000	2.883125
-6.588000	1.098000	993.812012	1.995000	-8.176875	-0.516250
-4.270000	16.531000	1008.452026	5.840625	1.036875	0.717500
-1.952000	22.691999	1037.609985	-12.363750	0.660625	1.684375
-4.697000	-7.015000	1032.852051	-8.575000	3.609375	5.796875
-7.564000	-18.422001	1016.138000	-2.240000	4.830000	6.317500
-29.280001	-36.417000	1014.429993	-0.866250	3.928750	6.803125
-30.500000	-43.126999	1014.064026	-1.207500	-2.454375	3.924375
-36.966000	-43.798000	1020.164001	1.448125	3.836875	0.105000
-39.589001	-33.244999	1013.575989	4.274375	1.194375	-2.410625
-30.256001	-24.521999	1005.402039	-5.368125	0.227500	-4.213125
-31.049000	-28.365000	1013.270996	-0.529375	1.868125	-4.760000
-23.729000	-23.058001	1010.648010	0.542500	-0.730625	-5.635000
-26.108000	-17.812000	1020.286011	0.371875	3.224375	-4.860625
-29.889999	-26.169001	1023.824036	-1.911875	0.971250	-3.998750
-47.945999	-27.328001	998.752991	-2.870000	3.605000	-3.023125
-45.139999	-47.702000	1011.197021	-2.261875	-1.159375	-2.703750
-47.763000	-44.164001	1000.705017	-2.275000	-0.367500	-2.918125
-54.900002	-49.166000	1006.622009	-0.140000	-2.135000	-1.159375
-67.771004	-43.615002	1022.116028	4.956875	-1.347500	0.437500
-120.779999	-48.190002	1038.036987	-2.231250	-9.660000	4.545625
-234.606003	-64.660004	1094.462036	-2.655625	-14.980000	7.494375
-345.503998	-81.556999	1102.635986	3.946250	8.723750	11.484375
-331.718018	-40.260002	1050.053955	4.383750	15.938125	6.378750
-299.510010	-36.050999	1031.754028	0.945000	16.646875	10.338125
-235.094009	-30.622000	985.272034	-1.093750	15.448125	11.742500
-159.332001	-55.875999	911.645020	14.599375	5.153750	22.995001
-94.367004	40.625999	841.617004	28.122499	13.361250	11.825625
-35.136002	33.244999	919.270020	29.859375	19.753124	13.615000
43.859001	40.382000	994.117004	30.568125	-14.463750	-0.770000
121.877998	199.958008	906.460022	19.302500	-13.540625	11.690000
241.316010	26.840000	1111.664062	9.331875	-9.073750	1.133125
365.390015	80.703003	1070.367065	-6.243125	-20.606251	-20.413750
345.015991	93.940002	1254.831055	1.168125	8.483125	-15.610000
345.808990	104.554001	1131.671997	-22.929375	15.680000	-22.540001
335.683014	84.362999	1148.751953	-23.340626	-7.997500	-12.289375
300.242004	27.511000	1036.084961	7.686875	19.530001	-2.485000
231.678009	149.084000	948.428040	4.851875	22.067499	5.565000
176.778000	84.790001	973.132996	-3.014375	-4.808125	19.573750
46.909000	21.106001	965.630005	0.778750	-17.666250	11.563125
59.475002	97.539001	993.445984	-5.088125	-9.476250	-7.192500
7.991000	55.510002	960.505981	-10.570000	-5.075000	-5.442500
-35.257999	18.666000	1048.895020	-0.498750	-16.603125	-0.682500
-109.922005	51.728001	1029.863037	26.503750	-3.193750	1.338750
-161.772003	32.879002	999.424011	12.219375	1.815625	1.575000
-229.542999	4.453000	960.811035	-9.489375	6.050625	-6.396250
-302.987000	45.201000	834.846008	-42.879375	35.590626	-4.200000
-316.528992	22.143000	863.150024	-52.412498	17.276875	3.241875
-286.273010	-48.007000	1027.484009	-25.300625	-24.062500	7.678125
-228.384003	-13.359000	1102.453003	-1.579375	-28.625626	9.388750
-140.604996	-47.153000	1163.758057	18.449375	-8.159375	11.523750
-109.617004	-34.709000	1089.520996	11.716250	-2.751875	-2.983750
-59.353001	-4.636000	1092.265991	0.507500	17.233126	-14.857500
-45.993999	21.533001	1005.707031	-18.480000	-0.293125	-18.615625
-28.670000	-11.834001	972.645020	-15.203125	-4.445000	-10.456250
-25.254000	-41.723999	1007.536987	-14.166250	-6.750625	-5.661250
-40.199001	-69.967003	1069.940063	-11.961250	8.338750	0.612500
-11.895000	-77.592003	973.255005	-3.443125	-11.055625	4.729375
-17.934000	-85.643997	1037.000000	3.355625	8.181250	3.806250
-43.920002	-69.174004	982.588013	0.936250	11.116875	0.708750
-24.583000	-46.542999	992.531006	-0.573125	-5.215000	1.089375
-36.234001	-34.342999	1031.875977	5.976250	5.040000	1.334375
-24.278000	-16.958000	1025.348999	6.291250	-2.485000	2.170000
-25.620001	-25.864000	1009.794006	4.361875	2.401875	2.900625
-41.236000	-33.977001	1003.267029	0.284375	1.264375	3.088750
-36.722000	-45.139999	999.546021	1.426250	-1.426250	0.275625
-39.040001	-48.190002	1025.471069	3.408125	-1.960000	-1.780625
-19.093000	-45.567001	1027.545044	-0.503125	-1.671250	-2.078125
-28.792000	-46.237999	1020.286011	-3.950625	2.524375	-2.301250
-36.417000	-39.223000	1001.254028	-1.736875	4.055625	-2.253125
-40.320999	-35.257999	1023.702026	1.837500	-1.610000	-1.719375
-31.964001	-36.966000	1011.807007	3.084375	-3.434375	-0.271250
-31.659000	-44.225002	1009.855042	-2.721250	5.582500	0.490000
-45.201000	-46.909000	1010.892029	2.979375	-1.649375	-1.010625
-53.253002	-47.214001	1038.769043	-0.896875	-0.140000	-0.682500
-111.996002	-38.368999	1055.056030	-0.035000	-4.108125	0.363125
-165.371002	-45.323002	1049.626953	-4.554375	-7.818125	4.130000
-267.363007	-64.660004	1076.040039	5.980625	8.627500	7.227500
-314.638000	-42.456001	1088.728027	-1.106875	10.535000	5.376875
-337.574005	-42.272999	1033.156982	-15.172500	30.703751	11.554375
-309.148010	-79.971001	986.919006	-21.923124	27.111876	14.879375
-276.574005	-66.551003	933.971008	-10.780000	41.571251	12.215000
-235.277008	-66.429001	888.160034	-2.668750	-7.726250	7.765625
-134.992996	-8.845000	905.971985	16.432501	-15.776250	4.436250
-35.380001	53.680000	945.134033	1.321250	4.593750	11.086250
129.563995	-63.379002	871.140991	-30.121876	21.157499	17.622499
170.556000	-156.098999	950.135986	-30.038750	30.590000	-2.695000
316.407013	-32.513000	1056.093018	-10.381875	-47.626251	-12.368125
262.726990	-99.979004	1202.676025	-5.569375	-31.709999	-4.248125
242.475006	-114.252998	1235.615967	16.528749	-26.639376	7.126875
284.260010	-213.317001	1151.130981	-2.156875	-27.055000	10.228750
291.274994	-225.029007	1056.885986	18.160625	-0.266875	-8.951250
265.532990	-90.036003	1094.583984	52.858749	-5.919375	-10.456250
212.341003	-65.514000	1079.456055	54.123123	-13.706875	-1.303750
188.673004	-2.074000	1016.869995	43.010624	4.313750	4.370625
101.260002	48.129002	961.116028	27.947500	-4.746875	-1.203125
58.132999	97.294998	938.973022	-5.258750	-2.813125	9.244375
-14.762000	111.264000	974.475037	-18.217501	25.370625	12.258750
-72.163002	51.667000	745.481018	-28.931875	-11.510625	29.049999
-96.196999	-18.361000	1030.594971	-17.591875	-44.082500	7.840000
-120.902000	25.864000	1047.492065	-7.883750	-7.743750	-12.123125
-101.382004	44.103001	984.052002	-12.403125	-12.604375	-31.010000
-193.065002	16.775000	971.119995	-19.586876	1.618750	-24.745001
-174.460007	-72.528999	984.540039	-17.635626	-28.258125	-24.648750
-158.539001	-100.589005	1076.344971	-12.985000	-11.125625	-22.933750
-168.055008	-129.259003	1112.518066	-8.089375	-8.181250	-18.090626
-83.752998	-73.871002	1019.005005	-11.388125	3.311875	-14.551250
-42.761002	-53.924000	1042.916992	2.419375	16.283751	-3.001250
21.899000	-35.441002	987.346008	-2.791250	9.003750	5.862500
8.357000	-42.944000	1034.072021	-7.078750	3.486875	14.100625
5.124000	-98.149002	1083.542969	3.185000	17.674999	14.030625
4.209000	-83.936005	1106.844971	10.583125	-6.094375	10.653125
37.637001	-76.127998	967.582031	12.075000	3.482500	8.190000
23.180000	-89.669998	1000.949036	14.533750	21.004375	7.035000
28.792000	-76.860001	1011.989990	10.793125	-2.817500	1.876875
9.089000	-30.134001	978.257019	3.276875	8.330000	-1.041250
6.283000	-12.139000	992.470032	5.700625	7.949375	-0.638750
-1.647000	-5.124000	1025.776001	-6.851250	0.735000	1.715000
4.392000	-24.521999	1016.260010	1.876875	5.411875	0.896875
-13.359000	-5.490000	1027.545044	6.807500	6.553750	-0.078750
12.688000	-10.675000	1005.280029	10.346875	-1.929375	-1.316875
-10.248000	-4.209000	1024.921997	2.870000	5.096875	-1.540000
-17.446001	-11.346000	999.546021	-2.016875	2.130625	-2.708125
-5.551000	-19.764000	981.856018	-7.616875	-4.020625	-2.231250
-12.871000	-60.938999	1036.695068	-12.696250	1.150625	-0.358750
-21.837999	-55.327000	1062.681030	-1.133125	4.506250	-2.948750
-14.640000	-22.448000	1000.460999	7.980000	7.507500	-7.888125
-25.620001	6.893000	989.114990	4.300625	2.170000	-7.035000
-31.903000	9.272000	1012.600037	3.438750	-3.600625	-4.340000
-14.640000	10.370000	985.882019	-2.690625	-4.633125	-0.153125
-31.232000	-17.750999	1038.952026	-2.843750	0.713125	2.511250
-43.188000	-11.163000	992.104004	3.530625	-6.785625	8.045625
-92.475998	-52.216000	1028.399048	-8.001875	1.036875	14.945000
-132.186996	-38.247002	1005.463013	-7.975625	3.294375	13.956250
-261.019012	-46.604000	1056.641968	-4.099375	-9.423750	11.703125
-288.041992	-40.992001	1023.702026	0.363125	0.651875	6.693750
-292.739014	-7.381000	1010.770020	-9.148125	4.335625	12.534375
-246.074005	-29.524000	1016.015991	-5.919375	-3.622500	13.912500
-196.054001	41.907001	869.250000	-20.746250	27.020000	5.823125
-109.678001	4.575000	1009.062012	5.538750	22.526875	3.766875
-40.931000	-97.417000	1074.393066	-6.230000	-3.272500	-2.821875
51.240002	-116.632004	960.811035	21.170626	5.897500	-5.075000
190.625000	5.124000	1032.852051	3.635625	2.555000	2.996875
229.055008	-132.126007	1084.763062	3.854375	-28.651875	2.861250
280.477997	-128.160995	1067.317017	39.366249	10.320625	-0.245000
320.188995	-23.241001	1018.151001	64.036873	-9.992500	-6.125000
284.503998	153.354004	1091.961060	35.091873	-10.381875	-6.260625
247.843002	111.325005	1061.827026	-30.546249	-10.311875	-8.045625
239.303009	34.952999	1116.300049	-61.101250	-8.461250	-0.590625
184.891006	-124.013000	1047.614014	-39.554375	7.778750	5.376875
131.272003	-69.052002	1086.471069	-2.751875	27.374374	-3.784375
213.317001	36.295002	1070.977051	30.401875	2.699375	-9.953125
173.910995	60.146000	988.200012	22.474375	-0.109375	-7.805000
193.003998	27.877001	954.223022	-28.813749	-4.396875	4.725000
65.819000	-39.345001	1010.343018	-35.682499	-21.301874	19.779375
50.447002	-28.365000	925.309021	-7.271250	-0.993125	33.814377
-124.562004	-128.649002	931.226013	-15.238125	-11.628750	28.463751
-140.056000	-63.195999	904.812988	-21.096251	19.665625	10.885000
-235.337997	-108.153000	955.992004	-18.401251	-11.668125	-5.700625
-207.400009	-73.016998	1003.632996	-14.236250	-2.725625	-20.160000
-238.326996	-49.288002	1048.468018	-8.356250	-10.014375	-17.408125
-195.505005	-50.935001	1043.770996	-18.431875	3.701250	-17.237499
-125.843002	-98.576004	1045.906006	-7.993125	-8.417500	-20.615000
-74.114998	-96.989998	1034.072021	3.110625	-1.500625	-15.968750
-52.582001	-157.257996	1064.083984	4.427500	-3.972500	-11.930625
-41.418999	-150.914001	1079.333984	15.448125	15.653750	-6.881875
-14.152000	-90.341003	1010.830994	9.734375	1.391250	-6.798750
-10.919000	-81.313004	1028.155029	9.340625	11.742500	-3.858750
-10.065001	-58.194000	993.507019	-1.268750	10.145625	3.478125
-28.365000	-78.080002	972.705994	-9.069375	8.763125	7.630000
-15.128000	-101.503998	914.572998	5.779375	10.696875	16.699375
-21.533001	-116.998001	1045.357056	-10.237500	-2.835000	10.390625
-41.541000	-105.529999	986.736023	-3.950625	6.728750	0.892500
-20.679001	-114.070000	1034.864990	4.528125	3.084375	-9.148125
-30.622000	-51.545002	1006.012024	8.964375	5.888750	-15.137500
5.124000	-25.375999	1047.858032	18.751249	5.451250	-10.220000
-32.695999	-47.580002	1041.331055	15.885625	12.525625	-7.415625
1.159000	-55.937000	1038.952026	22.133125	-0.205625	-0.231875
-8.662000	-27.938000	1014.247009	10.416875	6.435625	4.830000
-16.409000	-31.903000	974.048035	10.679375	3.832500	7.700000
0.244000	-16.226000	959.895996	12.656875	-0.770000	6.501250
-10.736000	-16.836000	960.689026	16.983749	-8.172500	0.809375
-11.834001	8.906000	987.406982	8.868125	-8.575000	-6.921250
-29.280001	-6.466000	1033.279053	2.030000	-7.253750	-5.591250
-63.623001	0.122000	1077.260010	-4.484375	1.881250	-5.945625
-87.351997	-2.196000	1018.578003	-8.828750	18.541250	-5.954375
-43.798000	-10.309000	993.385010	-2.266250	8.483125	-2.143750
-9.760000	6.771000	988.139038	3.871875	22.474375	-8.824375
27.328001	-15.494000	1015.893982	25.655001	-1.911875	-12.840625
25.193001	39.223000	1070.427979	11.401250	-7.275625	-16.568125
70.515999	36.844002	1093.729980	-0.253750	6.545000	-11.585000
173.300995	20.313000	1059.570068	-20.304375	24.784374	-4.550000
201.238998	-0.610000	1085.983032	-6.085625	34.103127	3.937500
185.867004	-7.198000	1021.018005	10.780000	22.443750	-4.851875
181.658005	51.605999	930.799011	10.421250	-9.397500	-8.246875
77.225998	55.388000	976.854004	-16.751875	-6.772500	-9.318750
-40.625999	35.990002	955.077026	-10.040625	-15.176875	7.323750
-92.292999	32.757000	1008.025024	-24.543751	-32.068748	-0.564375
-82.472000	-4.575000	909.265991	9.559375	-12.193125	-3.981250
-145.606995	28.304001	984.661987	1.675625	-6.527500	-16.799999
-239.486008	3.721000	1026.447021	-3.478125	-26.556250	-23.883125
-220.332001	0.244000	1026.020020	-18.059999	-34.107498	-34.291248
-287.981018	-77.530998	999.241028	-13.982500	-13.142500	-32.698750
-318.237000	-135.968994	1111.907959	-36.889999	-0.638750	-44.537498
-351.970001	-193.309006	1074.942017	-17.434376	-4.414375	-38.898125
-289.688995	-188.184998	1128.927002	10.692500	-19.420626	-19.481874
-236.557999	-219.660995	1131.550049	33.919376	-20.160000	11.020625
-217.953003	-150.731003	1061.827026	45.884998	11.471250	28.603750
-236.253006	-57.584000	1074.270996	42.209999	17.101875	38.101875
-209.413010	-33.244999	1033.279053	28.888124	-3.381875	41.212502
-162.259995	78.507004	1012.051025	16.060625	15.181250	45.001251
-117.425003	29.463001	921.770996	-9.148125	10.517500	37.498123
-24.095001	58.743000	1019.737000	-12.193125	15.938125	24.801874
59.535999	92.598000	951.966003	-43.994999	-2.292500	22.452499
153.537003	25.315001	992.592041	-32.781876	6.986875	12.705000
236.070007	43.615002	955.809021	6.116250	20.746250	24.858749
266.447998	-89.304001	959.041992	15.640625	2.944375	4.821250
206.363007	-14.274000	1119.776978	32.619999	15.907500	-3.272500
158.660995	-7.137000	1010.281982	-15.885625	3.828125	-7.997500
167.139999	-59.292000	1040.050049	-21.573126	17.237499	-10.920000
39.711002	23.180000	998.875000	-16.611876	25.252501	-8.194375
52.338001	7.137000	1004.609009	7.433125	6.571250	-0.472500
59.658001	-11.834001	1037.609985	5.626250	11.738125	-1.093750
-28.121000	49.532001	1045.052002	-11.506250	5.363750	-7.853125
-19.276001	-30.561001	1003.083984	-23.187500	-11.978750	-6.098750
-72.651001	-28.243000	1059.753052	-3.539375	6.146875	-5.302500
-77.225998	-51.605999	1036.024048	20.243126	-0.336875	2.620625
-119.071999	-44.225002	1015.528015	20.168751	-6.615000	4.383750
-96.989998	-31.171000	1033.096069	19.158125	-4.598125	3.648750
-80.946999	4.636000	1020.468994	11.086250	4.466875	0.144375
-87.168999	10.126000	968.497009	9.310000	0.923125	-0.984375
-64.355003	5.551000	999.606995	5.858125	9.139375	-2.708125
-77.775002	32.208000	1032.608032	-6.903750	-1.990625	-0.424375
-64.171997	34.282001	1017.358032	-0.371875	8.487500	4.366250
-69.479004	-3.111000	1009.306030	-1.369375	14.616875	6.068125
-71.796997	6.771000	983.686035	0.463750	6.365625	6.829375
-71.553001	6.649000	1032.729980	-4.025000	-3.902500	6.523125
-109.007004	28.304001	1017.968018	-0.669375	-4.147500	2.773750
-88.328003	35.501999	973.804016	1.098125	-1.360625	3.622500
-96.806999	-4.514000	1020.835022	4.847500	9.546250	-1.561875
-80.459000	9.821000	991.311035	2.598750	-0.231875	-4.663750
-72.346001	10.797000	1026.812988	-5.971875	-6.925625	-5.691875
-94.183998	23.180000	1044.807983	-3.963750	2.940000	-2.331875
-94.306000	30.927000	993.994995	0.586250	-2.003750	3.815000
-94.367004	-6.649000	1032.242065	20.151251	-0.984375	-3.797500
-83.875000	96.989998	996.374023	35.271252	5.674375	-5.171250
-105.224998	97.539001	988.809998	16.970625	7.581875	-2.730000
-83.631004	49.776001	1042.855957	-1.058750	-13.050625	-3.355625
-12.871000	49.288002	1033.156982	2.296875	5.153750	-4.886875
86.742004	78.568001	1050.297974	-1.833125	3.237500	-7.402500
179.949997	60.756001	1130.452026	-13.129375	4.751250	-13.571250
244.244003	83.570000	1096.536011	-14.415625	-11.186875	-21.472500
206.363007	62.646999	1041.391968	-18.143126	-3.535000	-21.813749
233.324997	53.253002	921.770996	-11.007500	-12.880000	-5.193125
13.176001	62.830002	876.082031	-6.448750	-53.794998	15.522500
7.381000	71.613998	859.673035	-0.892500	-52.990002	-4.103750
2.989000	77.470001	892.796021	-2.301250	-83.978127	3.609375
-39.345001	-58.926003	976.976013	13.785625	-15.111250	-16.003750
-192.210999	-33.916000	1102.208984	7.840000	52.211250	-20.763750
-210.084000	-14.579000	1029.924072	-19.661249	58.655624	-19.140625
-195.078003	-101.808998	1145.823975	-5.337500	6.313125	-5.180000
-111.691002	-98.271004	1149.789062	-2.065000	-0.017500	2.283750
-200.751007	-122.854004	1117.947021	0.249375	16.458750	6.671875
-295.118011	-60.084999	1041.270020	2.821875	29.561874	12.420625
-319.761993	-3.294000	1005.829041	-15.496250	8.719375	16.975000
-311.527008	-0.244000	1083.115967	-13.479375	5.250000	23.349375
-301.339996	-22.691999	1032.729980	12.446875	18.340000	32.707500
-285.846008	56.669003	968.863037	5.180000	26.744375	34.278126
-251.259003	45.506001	857.049988	-14.577500	31.775625	37.200626
-250.649002	-6.344000	936.411011	8.631875	12.853750	28.971251
-158.539001	-10.675000	832.588989	-5.884375	29.706249	-4.733750
-56.913002	37.271000	1114.531006	-1.277500	29.391251	-17.241875
45.018002	75.212997	872.239014	-17.683750	22.990625	-4.965625
78.445999	-52.826000	1081.895996	14.962500	-15.610000	4.585000
149.022995	-10.004000	1010.648010	24.793125	1.159375	17.066875
73.566002	35.746002	1083.848022	25.020624	-14.205625	17.018749
73.261002	34.465000	1094.156982	17.605000	-23.301250	9.222500
14.274000	24.948999	1096.657959	-4.431875	-20.531876	-1.618750
3.660000	74.847000	1142.347046	-17.530624	-9.817500	-7.783125
-30.073000	26.413000	1038.952026	-23.524376	-1.553125	-8.920625
-38.612999	27.938000	1020.041992	-13.864375	-15.325625	-6.772500
-73.200005	10.553000	1050.664062	-16.244375	-4.103750	-6.208125
-60.024002	-13.359000	1032.485962	-9.108750	0.021875	-2.065000
-73.993004	-30.256001	1086.898071	-13.811875	-11.007500	-1.946875
-70.150002	-27.450001	1040.294067	-11.917500	-11.869375	-1.150625
-59.170002	-31.293001	987.833984	3.456250	-4.239375	1.723750
-76.127998	-33.123001	995.031982	9.664375	-3.736250	-1.680000
-89.426003	-7.747000	989.359009	10.906875	-1.395625	-4.563125
-78.018997	4.270000	986.674988	9.524375	-2.191875	-5.871250
-80.641998	6.527000	1000.522034	4.488750	0.446250	-4.191250
-72.041000	8.296000	991.921021	3.692500	-0.100625	-2.607500
-59.230999	14.640000	1022.299011	4.453750	8.303750	-1.080625
-58.621002	14.396000	1019.127014	0.538125	-1.671250	0.135625
-44.529999	21.350000	984.783997	-2.804375	-4.068750	1.610000
-50.386002	4.575000	1004.426025	-8.653750	-12.757500	5.223750
-37.758999	1.525000	1017.053040	-7.319375	0.293125	5.005000
-56.119999	-7.503000	1026.141968	-8.688750	-0.485625	5.381250
-51.240002	-10.065001	1007.415039	-0.783125	1.701875	1.299375
-40.625999	6.039000	999.546021	-1.290625	4.160625	-0.813750
-34.160000	-11.956000	1021.140015	-3.281250	-0.030625	-2.830625
-35.380001	-22.509001	1037.732056	-0.555625	3.066875	-6.868750
-35.990002	7.991000	1028.703979	0.984375	2.318750	-6.741875
-43.188000	-3.538000	1018.944031	-1.360625	1.351875	-3.762500
-63.074001	-45.993999	1017.846008	0.144375	2.318750	-4.283125
-14.518001	-18.300001	1050.420044	5.118750	-1.168125	-6.593125
38.247002	-3.965000	1101.050049	9.476250	6.002500	-5.285000
119.438004	3.721000	1132.098999	10.968125	1.540000	-5.906250
224.663010	-38.125000	1109.406982	6.308750	2.524375	-9.760625
217.098999	1.464000	985.455017	6.702500	19.232500	-13.510000
241.011002	75.884003	921.893005	3.871875	1.286250	8.491875
150.975006	-30.134001	981.246033	-8.255625	-17.250626	14.953750
73.626999	-28.182001	893.650024	7.993125	-9.310000	13.601875
-67.344002	-5.673000	873.215027	7.179375	-16.458750	2.716875
-139.141006	28.121000	915.854004	9.891875	-14.682500	-4.672500
-167.932999	21.533001	1001.619995	-20.785625	1.509375	-25.410000
-226.737000	79.178001	988.260986	-22.308125	11.453750	-33.989376
-301.828003	-8.601000	1067.072998	-48.930000	-13.492500	-17.740625
-329.217010	-101.443001	1129.475952	-0.494375	-5.648125	-6.645625
-312.808014	-59.109001	1130.208008	20.995625	-3.185000	-11.847500
-266.570007	7.625000	1014.064026	25.913124	-2.213750	0.100625
-303.657990	-9.089000	1072.258057	5.040000	1.837500	13.243125
-319.518005	-44.408001	1089.459961	-26.355000	-3.119375	33.582500
-266.265015	-82.167000	1046.027954	-34.855625	6.365625	40.346249
-204.777008	-128.343994	1002.962036	-51.051876	26.193125	26.709375
-196.602997	-115.290001	969.351013	1.968750	36.369373	8.054375
-124.988998	-58.132999	979.598999	39.703125	-0.070000	-1.723750
-5.490000	-26.535000	974.596985	24.631250	25.720625	-13.002500
5.551000	159.880997	876.325989	62.369999	33.683125	12.057500
30.439001	-18.726999	1039.013062	37.944374	-21.328125	7.743750
118.889000	71.736000	1001.803040	-12.000625	22.977501	-21.861876
185.684006	17.385000	969.106995	-4.348750	-6.720000	-7.752500
152.682999	13.298000	1173.091064	-24.088751	-22.662500	-24.031876
188.856003	76.006004	1075.063965	-47.420624	-3.570000	-5.836250
131.820999	-28.487000	994.239014	-56.419998	-11.283125	9.900625
49.532001	-102.175003	1080.676025	-32.900002	11.935000	21.503124
-40.138000	-105.408005	1020.408020	2.362500	7.140000	26.928125
-92.475998	-130.113007	1001.254028	24.889376	-28.783125	25.615625
-88.328003	-116.875999	1010.708984	37.257500	-21.555626	9.353750
-57.584000	-45.506001	1026.995972	37.751877	-15.855000	-0.774375
-27.450001	-10.919000	1045.296021	27.343750	-10.080000	-0.131250
-34.465000	28.059999	1039.440063	26.105625	-6.601875	-2.769375
-47.519001	64.233002	1037.609985	20.212500	-5.101250	-3.276875
-30.012001	68.259003	1033.949951	11.519375	-2.078125	-6.282500
-25.132000	54.351002	1011.135986	0.726250	3.031875	-8.745625
-26.352001	54.716999	1046.333008	0.380625	5.648125	-8.006250
-10.248000	58.621002	1016.199036	-4.252500	-0.476875	-4.650625
-28.609001	50.202999	1008.757019	-10.605000	8.653750	-1.408750
-34.282001	26.169001	1011.684998	-13.711250	3.731875	-1.863750
-13.847000	24.521999	1006.561035	-11.808125	-0.170625	-3.290000
-25.986000	26.352001	1024.800049	-9.843750	4.003125	-3.136875
-14.335000	6.405000	1009.062012	-5.311250	-1.028125	-2.117500
-21.289000	17.385000	1010.892029	-1.124375	2.852500	-2.843750
-14.701000	16.348000	1012.234009	2.353750	-2.419375	-2.327500
1.037000	0.000000	1009.428040	5.381250	0.805000	-1.627500
42.944000	8.479000	1048.956055	4.392500	6.531875	-2.730000
155.611008	9.760000	1093.729980	-3.062500	-1.120000	-4.208750
240.096008	5.002000	1100.683960	-14.061250	3.486875	-5.236875
216.061996	14.274000	1027.118042	-21.061251	-7.870625	-18.799376
195.626999	5.795000	996.191040	9.852500	-19.285000	-7.446250
119.559998	-3.904000	1008.085999	16.266251	-6.256250	-9.056250
39.406002	55.693001	888.892029	-29.894375	0.599375	-0.490000
-32.208000	-25.742001	954.040039	-34.125000	-16.813126	10.465000
-22.936001	-100.467003	1061.034058	-29.469999	8.001875	-4.895625
18.056000	-46.482002	1075.490967	-17.106251	19.958750	-6.164375
-6.527000	-44.834999	1028.155029	-16.187500	7.441875	0.210000
-71.003998	-76.006004	1031.631958	-3.718750	-18.440624	10.539375
-142.313004	-82.837997	895.296997	14.236250	-16.673124	12.670000
-199.653000	-95.586998	876.325989	49.087502	-32.729374	12.748750
-230.641006	-6.710000	1120.692017	23.629375	-14.625625	8.054375
-223.686996	-27.205999	1100.806030	6.400625	-37.896252	5.980625
-264.800995	-9.821000	1060.911987	9.550625	-11.523750	-0.953750
-195.261002	-11.712000	1172.114990	-22.111250	29.496250	-16.830626
-221.735001	-77.348000	1204.628052	-34.120625	-7.966875	-28.494375
-149.328003	-48.129002	1078.723999	-3.215625	23.467501	-16.476250
-102.846001	-3.172000	938.119019	-0.249375	29.995001	5.381250
-43.675999	-74.481003	879.437012	27.431250	-8.338750	12.070625
36.234001	-25.132000	785.436035	37.222500	-4.970000	18.921875
111.813004	-34.038002	989.176025	43.745625	19.530001	9.620625
112.118004	-35.685001	1031.204956	10.193750	6.916875	-2.673125
280.477997	77.409004	976.488037	-30.003750	19.578125	-22.106874
225.395004	-0.793000	1063.108032	-22.973125	18.059999	-18.348749
215.085999	43.005001	1078.052979	-38.136875	16.865625	-21.139999
211.242996	9.821000	1061.400024	-21.577499	13.781250	-11.353125
148.046997	-12.871000	1087.751953	-22.001875	-9.699375	-8.614375
121.756004	-53.680000	975.572998	-0.245000	13.461875	-0.708750
46.360001	-100.650002	1016.869995	6.698125	-9.511250	1.133125
30.316999	-91.317001	1030.350952	4.099375	11.869375	-2.148125
8.296000	-61.061001	1017.053040	0.406875	4.322500	0.048125
4.941000	-67.709999	1028.582031	-0.542500	9.896250	2.931250
-12.139000	-65.270004	999.606995	-1.093750	6.251875	2.515625
-20.252001	-53.497002	1015.955017	1.102500	1.802500	0.266875
-4.392000	-58.681999	1019.432007	6.689375	0.634375	-1.824375
-28.975000	-60.512001	1049.199951	13.251875	-1.890000	-3.648750
-31.354000	-17.385000	1023.335999	11.720625	3.640000	-3.005625
-27.023001	-2.013000	1002.230042	5.223750	1.141875	0.424375
-23.302000	-28.487000	1016.565002	-2.174375	-10.014375	2.016875
-13.115000	-33.855000	985.820984	2.393125	-3.062500	1.570625
-23.118999	-38.857002	1019.554016	7.945000	0.848750	-1.369375
-18.605000	-28.975000	1010.281982	-3.758125	2.699375	-2.218125
-27.205999	-29.951000	1010.403992	-3.635625	4.287500	-4.746875
-28.914000	-18.849001	1005.890015	-10.180625	2.703750	-3.049375
-17.873001	-34.038002	1018.882996	-1.518125	1.080625	-1.365000
-11.895000	-10.614000	994.361023	4.182500	-2.209375	0.870625
6.039000	-28.182001	1022.421021	4.803750	-6.391875	1.330000
17.873001	-25.498001	1026.385986	3.150000	-1.526875	-0.721875
55.875999	-21.533001	1048.102051	-0.122500	3.898125	-1.076250
62.708000	-15.982000	1047.308960	-13.536250	8.023750	-2.003750
114.862999	-39.771999	1086.898071	-19.556250	6.024375	-1.098125
209.962006	-58.560001	1103.551025	-17.412500	6.378750	-1.185625
238.326996	-60.633999	1032.364014	-10.101875	11.073125	-4.270000
177.998001	-79.056000	951.356018	4.020625	11.790625	-2.401875
149.572006	-41.174999	923.234985	-0.166250	0.634375	-8.548750
46.542999	-79.666000	934.580994	0.826875	-12.315625	-18.436251
-10.065001	-27.389000	973.194031	-11.431875	-7.061250	-26.004999
-22.997000	-61.487999	983.807983	-6.317500	-23.537500	-16.043125
-80.276001	-103.700005	996.801025	20.676250	-2.721250	-2.918125
-172.630005	-87.230003	1023.580017	30.668751	-15.019375	0.879375
-229.115997	-9.760000	927.809998	4.812500	5.241250	0.525000
-278.098999	-47.824001	979.294006	4.515000	-14.555625	-3.403750
-301.644989	-40.015999	1128.561035	-5.079375	-18.549999	0.721875
-290.970001	-69.479004	1067.500000	-23.668751	-2.100000	13.776875
-281.515015	-125.538002	1165.282959	-22.658125	4.440625	10.307500
-272.059998	-114.619003	1131.671997	-2.139375	12.928125	-3.526250
-226.066010	-68.442001	1113.982056	0.800625	36.806873	-4.081875
-213.072998	-33.977001	1073.661011	-15.085000	35.209999	-3.132500
-195.566010	-48.861000	1016.077026	10.692500	33.070625	4.865000
-116.998001	-135.785995	1010.526001	14.818125	56.546875	11.851875
-94.245003	-52.338001	965.020020	-15.006250	15.163750	19.534374
-42.639000	-119.681999	869.981995	-33.971874	9.331875	16.773750
36.295002	-107.237999	900.726013	22.242500	22.881250	15.080625
44.103001	-38.186001	962.092041	11.515000	6.851250	14.945000
62.403000	-43.859001	1000.156006	-4.519375	-25.834375	2.358125
39.101002	-47.031002	948.549988	13.689375	10.548125	3.561250
70.393997	-34.221001	1015.040039	9.813125	-24.963751	2.428125
24.766001	-79.422005	1016.260010	15.680000	-16.358126	7.052500
-21.594000	-35.685001	1115.202026	0.826875	-5.582500	6.930000
-14.213000	-44.408001	1038.342041	20.370001	-19.923750	8.181250
-44.713001	-19.642000	1079.883057	15.710625	-7.853125	9.940000
-50.386002	-35.929001	1031.510010	4.239375	-10.421250	10.797500
-59.535999	-20.984001	1053.286987	-2.795625	-7.743750	7.406875
-71.370003	-11.407001	985.150024	-5.210625	-4.388125	5.271875
-78.140999	-27.328001	1012.661011	1.260000	-6.295625	-0.262500
-57.767002	-15.799000	1030.411987	1.618750	-7.945000	-1.273125
-52.948002	-6.893000	1015.406006	3.526250	-1.863750	-0.131250
-44.285999	-5.551000	1018.395020	2.349375	-5.503750	2.629375
-41.236000	-26.657000	1005.158020	1.238125	-7.883750	2.926875
-40.382000	-5.429000	1005.280029	5.140625	-3.648750	1.824375
-41.053001	9.821000	1038.098022	-2.537500	-2.988125	0.061250
-18.726999	5.368000	1005.341003	-0.096250	-0.354375	-0.398125
-31.720001	-1.098000	1022.116028	-0.323750	-2.279375	1.868125
-28.426001	-10.431000	1008.390991	-3.915625	-4.309375	3.486875
-38.735001	-27.694000	1034.437988	-5.250000	1.701875	3.241875
-30.073000	-8.967000	1005.402039	-2.476250	2.721250	0.966875
-29.158001	-18.056000	1017.968018	2.275000	0.756875	-0.826875
-29.219000	-8.052000	1018.090027	1.452500	-4.650625	-3.381875
-18.605000	-5.856000	1015.406006	1.496250	-4.878125	-4.335625
3.904000	-13.847000	1023.153015	-4.878125	-5.061875	-4.007500
-5.124000	-13.115000	1022.604004	-3.395000	3.539375	-3.023125
22.631001	-15.860001	1009.367004	-5.197500	0.441875	-2.209375
39.101002	-29.402000	1003.937988	-1.671250	0.266875	-2.340625
144.875000	-45.811001	1078.602051	-6.085625	0.367500	0.949375
196.298004	-41.968002	1061.521973	-4.685625	5.442500	0.971250
245.037003	4.819000	950.929016	4.895625	14.008750	-2.003750
149.511002	-13.481000	919.087036	-0.962500	-3.263750	-1.771875
147.315002	-24.217001	926.651001	10.010000	-20.041876	-3.976875
153.720001	-18.849001	885.781006	16.550625	-27.055000	-10.605000
118.950005	-1.586000	1013.027039	-5.376875	-20.597500	-12.346250
58.804001	-11.712000	1016.260010	-23.786875	-20.615000	-4.974375
-21.777000	-46.542999	989.054016	-12.971875	-25.681250	6.308750
-75.579002	-66.978004	1027.911011	31.141251	-14.087500	8.470000
-144.813995	6.344000	1033.706055	25.169374	4.274375	10.119375
-237.595001	-42.090000	1026.324951	20.768126	-10.552500	1.658125
-215.635010	37.637001	1167.967041	-6.951875	-24.268126	-7.813750
-203.434998	38.430000	1113.372070	-0.288750	-19.403126	-2.909375
-163.358002	42.944000	1103.551025	2.143750	9.651250	-2.292500
-176.595001	9.028000	1133.928955	-5.079375	0.638750	-9.213750
-161.772003	1.525000	1185.229980	-0.048125	25.344376	-13.020000
-149.755005	27.694000	1057.435059	-6.632500	26.814375	-7.446250
-97.051003	-43.675999	1056.824951	1.579375	34.387501	4.576250
-25.498001	-23.241001	1033.462036	-14.756875	14.415625	27.378750
12.383000	-55.021999	931.713989	0.857500	36.448124	18.948126
2.257000	62.830002	1011.624023	6.068125	41.680626	5.766250
81.862000	41.723999	912.926025	1.776250	25.156250	1.876875
85.400002	68.442001	955.809021	-4.458125	25.685625	2.327500
149.632996	-34.952999	984.845032	-18.895624	-16.638124	-7.065625
198.981995	-22.264999	934.703003	2.388750	6.982500	-5.735625
178.242004	31.171000	997.655029	10.093125	-22.469999	4.221875
148.839996	13.603000	1028.155029	9.113125	-18.716249	12.696250
69.723000	-4.270000	1051.213013	14.196875	-5.814375	9.541875
52.643002	48.494999	1043.588013	7.761250	-2.620625	7.424375
15.738000	27.999001	1047.796997	-4.186875	0.988750	5.197500
10.431000	34.038002	1013.148987	-1.706250	-1.251250	4.108125
-4.392000	10.553000	1014.613037	-4.812500	12.495000	3.775625
-12.139000	21.899000	1021.627991	-13.260625	4.326875	-1.242500
-29.158001	-6.100000	1024.067993	-14.367500	5.241250	-2.152500
-34.038002	-7.442000	1041.880005	-12.140625	8.185625	-4.799375
-26.230000	-5.978000	989.419983	-10.206875	3.906875	-5.433750
-30.622000	-26.596001	1019.005005	-4.497500	2.743125	-5.551875
-24.156000	-16.531000	1008.452026	-2.183125	-0.415625	-3.338125
-29.585001	-23.180000	1018.639038	-2.235625	0.665000	-0.126875
-32.085999	-38.368999	1013.880981	-0.472500	-1.570625	1.806875
-33.062000	-32.574001	1014.796021	2.104375	-0.201250	2.345000
-39.284000	-26.474001	1019.249023	3.355625	2.200625	1.946875
-35.441002	-22.387001	1026.020020	5.464375	-4.620000	-1.645000
-22.875000	-5.795000	1022.054993	3.521875	-0.980000	-2.445625
-7.564000	10.004000	1040.233032	4.186875	0.468125	-2.585625
-13.420000	3.416000	1020.713013	0.096250	-0.428750	-1.833125
-8.906000	-0.427000	1030.107056	-1.251250	1.207500	-1.369375
-19.764000	-11.468000	1028.947998	-3.727500	2.257500	1.277500
-5.307000	-15.250000	1015.161987	-3.425625	1.815625	0.485625
5.124000	-14.457000	1041.635986	-2.025625	7.231875	-1.041250
33.549999	-24.278000	1029.619019	-1.264375	3.014375	-6.361250
63.500999	-21.960001	1059.386963	1.872500	8.277500	-9.664375
137.494003	-17.690001	1035.474976	-20.960625	7.634375	-10.123750
160.186005	-47.336002	1014.491028	-15.732500	10.408125	-7.971250
149.938004	-36.722000	997.044983	4.729375	4.353125	4.423125
127.734001	-50.507999	992.286987	15.588125	-12.678750	11.983125
128.343994	-32.269001	973.437988	27.413750	-1.750000	14.402500
43.188000	-10.126000	941.596008	7.021875	-1.583750	7.437500
7.625000	10.187000	924.028015	-10.749375	-6.181875	-6.365625
-29.768000	-17.385000	944.768005	-21.599375	-21.844376	-10.373125
-46.421001	-22.936001	866.322021	-28.962500	-1.841875	-21.481251
-139.141006	27.084000	992.592041	-28.988750	-29.474375	-17.858749
-160.796005	-73.809998	1082.567017	-33.836250	-42.354374	-14.669375
-199.531006	-149.022995	1090.070068	1.474375	-27.973749	-11.309375
-272.304016	-384.421997	1213.594971	32.497501	-13.308750	-20.619375
-284.748016	-141.581009	1188.828979	25.746876	-17.495625	-46.278751
-253.089005	-33.855000	1152.046021	5.744375	20.440001	-13.230000
-234.057007	-16.653000	1126.730957	-19.639376	14.511875	16.953125
-217.709000	-67.344002	1098.427002	-20.155624	33.958752	38.298752
-216.794006	-98.942001	1008.147034	-6.295625	55.094376	39.580624
-188.429001	-63.744999	973.621033	-5.635000	53.711876	25.016251
-100.772003	-31.964001	958.127014	-7.166250	38.132500	24.390625
-77.409004	-70.638000	888.587036	-0.538125	56.853127	19.057501
-39.345001	-65.819000	899.994019	36.098125	7.161875	-4.580625
29.219000	-27.511000	1012.721985	20.912500	11.676875	-10.101875
85.095001	-55.693001	835.944031	22.295000	-19.525625	-10.933125
145.850998	29.585001	1054.140991	14.695625	-42.174999	-0.210000
145.485001	-69.417999	1107.760010	-15.351875	-55.160000	12.565000
156.647995	-76.982002	1120.265015	4.466875	-23.511250	16.205000
98.454002	-43.126999	1080.676025	-10.736250	-8.474375	15.846250
84.667999	-44.957001	1045.296021	-2.301250	-9.957500	11.480000
17.812000	-94.123001	1049.932007	-12.556250	0.236250	3.893750
12.017000	-26.169001	1016.199036	-7.826875	-11.449375	-8.233750
0.976000	-32.879002	998.814026	2.686250	5.201875	-4.865000
3.782000	-7.320000	1021.994019	7.975625	-6.846875	-4.856250
3.416000	-18.422001	1047.552979	11.886875	-2.043125	-0.354375
6.710000	-22.691999	1021.505981	13.418125	-1.198750	0.914375
5.185000	-18.849001	1010.465027	7.476875	2.349375	-1.408750
1.220000	-2.928000	1008.268982	4.886875	-4.405625	-2.100000
6.161000	-3.599000	1023.213989	3.451875	-4.274375	-2.533125
-1.342000	-14.640000	1022.177002	3.145625	1.023750	-0.647500
-0.793000	-5.429000	1012.843994	0.980000	1.526875	0.411250
-2.379000	-9.028000	1025.714966	3.714375	0.616875	1.544375
15.921000	-9.699000	999.851013	1.894375	-4.410000	1.518125
1.830000	2.074000	1015.345032	2.113125	5.761875	-0.118125
14.640000	6.466000	1000.827026	-0.188125	-6.313125	0.848750
-4.209000	-6.344000	1012.721985	-2.677500	5.880000	0.315000
1.098000	-10.187000	1018.273010	-5.075000	-0.240625	-1.977500
4.758000	-0.610000	1026.508057	-3.456250	3.276875	-2.318750
1.342000	1.220000	1023.335999	-1.478750	1.566250	0.030625
-9.150001	-1.708000	1022.481995	4.077500	3.228750	1.067500
-4.087000	13.542000	1013.820007	7.052500	-1.631875	1.544375
1.830000	5.856000	1028.338013	3.959375	0.231875	1.360625
-1.708000	10.004000	1020.652039	1.575000	3.049375	1.185625
-4.880000	-1.464000	1017.053040	-1.566250	9.104375	0.406875
18.361000	-2.135000	1011.441040	0.240625	0.039375	-2.765000
52.277000	22.936001	1014.369019	2.541875	1.951250	-4.353125
95.586998	22.021000	1020.713013	3.206875	4.637500	-3.263750
141.093002	-2.257000	1078.358032	2.349375	3.316250	-8.833125
185.806000	34.342999	1024.860962	-1.964375	17.622499	-16.016874
206.363007	59.535999	1024.373047	-10.836875	15.618750	-16.506874
214.720001	19.276001	987.101990	-16.935625	-2.966250	-14.336875
220.637009	-0.061000	953.856995	-9.310000	-13.343750	-6.536250
146.216995	-25.864000	881.267029	5.718125	-13.864375	-1.435000
69.052002	-10.309000	938.057983	-1.785000	-6.212500	-3.416875
-40.199001	-45.445000	988.809998	-17.215626	-21.315001	-12.950000
-98.881004	-17.934000	1059.875000	-10.508750	-13.615000	-14.516250
-115.290001	-58.560001	1067.927002	-8.190000	-35.647499	0.717500
-125.293999	-134.322006	1095.255005	8.636250	-30.038750	24.010000
-286.028992	-130.235001	1085.433960	22.789375	-30.778126	22.211876
-302.132996	-46.421001	1107.577026	33.468750	-5.573750	-13.365625
-230.031006	46.786999	1000.949036	14.420000	-10.224375	-13.129375
-202.581009	88.938004	1090.313965	-8.614375	-3.202500	1.662500
-216.977005	16.531000	1135.332031	-28.691250	0.988750	14.056875
-185.440002	-48.494999	1127.951050	-24.001249	34.295624	8.111250
-113.216003	-42.151001	1015.528015	-9.590000	33.005001	-3.093125
-46.421001	-27.450001	1061.338989	17.981251	40.963123	-8.898750
28.059999	3.416000	1053.775024	22.509375	26.044374	1.207500
38.612999	11.773000	1011.746033	-4.134375	27.151251	6.540625
59.779999	-25.315001	941.962036	-12.311250	11.326875	8.793750
143.777008	-16.592001	1005.463013	-3.622500	-13.689375	1.071875
144.143005	-22.387001	982.161011	28.678125	-12.547500	-7.341250
191.783997	54.046001	939.522034	8.881250	-3.539375	-21.533751
192.699005	69.662003	1082.811035	-16.436874	-19.368126	-10.434375
185.440002	44.164001	1011.197021	-31.018749	-6.951875	5.954375
140.421997	-0.671000	1005.096985	-15.846250	0.021875	17.438749
91.682999	-48.739002	1029.557983	-5.324375	0.179375	19.630625
73.383003	-53.131001	998.325989	-1.456875	7.175000	15.706250
56.242001	-35.990002	980.819031	-1.172500	2.821875	15.557500
42.700001	-55.693001	1009.549988	7.096250	-1.723750	9.069375
30.988001	-44.957001	1006.866028	12.661250	-0.892500	3.233125
23.790001	-13.664001	1014.186035	10.539375	0.367500	-3.600625
25.559000	-11.529000	1019.737000	8.439375	-3.950625	-2.428125
17.750999	-29.646000	1016.382019	4.869375	0.350000	-2.323125
19.398001	-15.799000	1030.046021	1.929375	0.958125	-4.086250
31.476000	17.629000	1019.432007	2.021250	1.522500	-1.382500
11.712000	-9.516000	1036.268066	2.305625	2.051875	1.085000
10.736000	-12.017000	1017.846008	10.001250	1.430625	-0.043750
17.812000	5.978000	1009.855042	6.251875	2.428125	0.201250
19.886000	12.139000	1006.134033	1.334375	-1.951250	0.682500
23.302000	2.379000	991.250000	-3.587500	-1.198750	0.026250
7.747000	2.684000	1016.382019	0.787500	-0.380625	1.885625
23.363001	1.830000	1019.432007	2.528750	-4.265625	2.909375
32.879002	14.701000	1038.708008	5.722500	-0.577500	1.421875
30.500000	19.276001	1016.077026	1.885625	-2.511250	0.748125
30.988001	22.509001	1031.571045	0.756875	2.506875	-1.426250
36.295002	34.952999	1014.796021	-5.285000	-1.172500	-0.870625
40.809002	24.400000	992.653015	-5.744375	0.914375	1.540000
40.138000	9.028000	992.897034	0.949375	-1.911875	5.971875
56.547001	-18.177999	1013.515015	0.227500	-0.450625	4.484375
119.743004	-18.056000	1052.799072	0.341250	-0.367500	0.253750
161.162003	-7.930000	1072.135986	-4.523750	9.008125	0.791875
218.319000	-7.137000	1077.625977	-1.321250	12.355000	2.835000
175.253006	-18.300001	996.801025	3.517500	20.129375	1.500625
175.497009	7.259000	1005.341003	-4.598125	15.128750	-5.381250
174.399002	28.487000	996.434998	-16.235624	-0.161875	-10.780000
131.210999	-4.148000	976.976013	-11.322500	2.638125	-3.495625
79.848999	-9.882000	987.955994	2.655625	-9.008125	-7.354375
55.815002	-7.747000	963.799988	7.748125	-13.558125	-3.141250
51.240002	30.073000	899.262024	-1.973125	-11.243750	6.055000
18.910000	-34.892002	957.760986	-2.918125	-34.243126	21.953751
-50.507999	-60.268002	1029.313965	-5.236875	-32.764374	19.595625
-121.695000	-58.681999	1017.785034	1.732500	-42.691250	8.137500
-190.503006	-27.205999	1065.547974	0.647500	-28.673750	2.196250
-212.707001	-19.032000	1130.756958	13.243125	-43.526875	-6.816250
-195.382996	44.774002	1142.286011	16.161249	-22.338751	-5.368125
-161.710999	102.785004	1110.383057	6.015625	3.521875	3.793125
-126.086998	27.267000	1185.901001	-14.494375	10.906875	8.063125
-123.037003	-8.723001	1172.176025	-4.738125	24.535000	3.631250
-78.202003	5.673000	1082.688965	-8.964375	50.802502	4.147500
-90.341003	-5.734000	1017.174988	2.655625	43.741249	1.697500
15.189000	-25.437000	965.752014	9.397500	20.510000	5.980625
-31.415001	1.159000	1080.187988	7.218750	33.394375	1.448125
110.227005	-23.485001	907.314026	9.905000	5.035625	-5.066250
32.390999	65.453003	1110.078003	9.918125	35.931873	3.084375
121.756004	32.085999	886.574036	-26.490625	-2.738750	-18.055626
218.197006	43.188000	986.187012	-30.966249	-9.970625	-4.025000
240.462006	-48.617001	1009.489014	-38.744999	-7.901250	-18.895624
270.962006	-50.325001	931.165039	-23.165625	-5.092500	-12.315625
239.059006	-97.356003	988.687988	-12.950000	-7.144375	-6.566875
162.382004	-83.387001	1029.009033	0.656250	-0.201250	-2.944375
135.725006	-60.389999	989.908020	18.099375	-4.676875	-9.078125
79.543999	-39.650002	1022.177002	19.875626	-1.128750	-5.075000
65.879997	-13.115000	1010.708984	13.947500	2.244375	-4.033750
35.441002	-26.901001	999.606995	14.542500	0.721875	2.839375
36.234001	-33.244999	1014.856995	16.703751	3.517500	1.360625
14.884000	-19.032000	1031.083008	12.385625	0.730625	-0.026250
48.861000	-14.396000	1033.156982	4.405625	5.866875	-2.345000
27.450001	-8.052000	1022.970032	-10.338125	0.122500	-0.468125
26.718000	-25.925001	1026.081055	-11.195625	5.788125	1.771875
16.165001	-28.792000	1026.081055	-2.183125	3.950625	3.600625
10.187000	-21.837999	1007.109985	0.770000	-2.213750	3.631250
19.703001	-24.521999	1007.903015	8.421875	3.990000	0.844375
23.241001	2.074000	1017.906982	7.358750	0.485625	-0.546875
22.631001	-8.235000	1007.293030	6.251875	-0.288750	1.172500
26.779001	-6.649000	1035.109009	2.498125	-0.450625	2.528750
25.802999	-5.734000	1012.783020	-0.490000	2.187500	3.447500
17.750999	-22.997000	1001.986023	1.391250	-0.148750	2.555000
22.631001	-3.477000	1006.682983	1.470000	5.674375	-1.561875
17.690001	5.490000	1030.473022	-2.576875	-2.633750	-3.377500
18.177999	8.845000	1026.264038	-5.630625	2.922500	-4.055625
18.726999	-0.183000	1032.669067	-6.151250	-0.415625	-3.780000
19.764000	-15.128000	1017.968018	-7.275625	0.910000	-2.988125
29.524000	-9.638000	1011.380005	-3.587500	3.495625	-2.397500
11.773000	-31.354000	1013.088013	0.700000	2.161250	-2.436875
41.846001	-6.039000	1024.129028	3.788750	1.623125	-3.465000
48.494999	-15.311000	1016.138000	2.520000	3.377500	0.647500
74.237000	-16.653000	1036.145996	0.761250	8.907500	2.572500
114.680000	-20.252001	1038.281006	-0.398125	2.865625	3.005625
177.815002	-20.740000	1079.029053	-6.076875	9.170000	8.701875
233.630005	-17.750999	1026.995972	-2.156875	10.968125	8.260000
264.679016	16.226000	974.109009	-0.406875	6.540625	12.000625
205.082001	-20.496000	965.752014	3.272500	2.931250	8.618750
137.188995	-40.748001	946.781006	-6.356875	-8.028125	-5.818750
101.198997	-19.580999	937.325989	-13.825000	-11.589375	-13.418125
67.161003	-6.771000	942.389038	-0.984375	-22.133125	-11.773125
38.796001	20.679001	1033.156982	-6.278125	-21.853125	-1.780625
17.263000	-39.771999	1044.869019	0.118125	-26.998125	9.922500
-54.229000	-78.995003	1008.695984	-5.560625	-19.162500	6.317500
-127.978004	-97.356003	1042.489990	-13.623750	-26.508125	4.926250
-235.216003	-84.057999	1027.911011	-6.461875	-25.449375	-3.425625
-229.848007	-21.350000	1093.912964	24.097500	-19.626249	-7.284375
-227.712997	-19.215000	1135.820068	15.465625	-23.813126	-1.382500
-183.244003	0.488000	1056.214966	4.886875	-0.030625	-0.266875
-165.675995	-9.638000	1176.202026	-17.727501	10.950625	-1.995000
-148.596008	-71.431000	1063.229980	-5.971875	14.096250	-11.147500
-88.999001	-40.748001	1064.693970	5.656875	40.783749	-15.487500
-24.521999	-18.117001	1006.377991	6.020000	25.064375	-11.418750
52.948002	-46.786999	980.208984	38.998749	24.701250	-4.156250
99.674004	49.897999	985.882019	10.797500	37.944374	5.398750
98.759003	-2.867000	943.853027	-2.918125	28.695625	2.244375
193.736008	15.799000	951.783020	-21.030624	23.922501	-7.437500
219.356003	8.113000	963.617004	6.286875	5.810000	-10.281250
188.977997	46.055000	1049.078003	2.371250	18.646250	-7.415625
186.721008	25.132000	1034.072021	12.613125	-9.104375	-4.186875
142.007996	19.276001	1110.200073	-7.306250	4.488750	5.263125
70.638000	-6.588000	1066.157959	-9.559375	3.202500	4.956875
52.948002	-33.184002	970.937012	-10.088750	6.400625	3.154375
9.760000	-23.668001	1034.499023	-6.588750	6.015625	-2.668750
14.884000	0.976000	970.876038	-15.435000	1.325625	-0.997500
-8.662000	-38.368999	1034.437988	-5.311250	-3.788750	-1.505000
-0.610000	-4.514000	1059.753052	4.138750	3.679375	-5.359375
-9.394000	-10.126000	1034.316040	2.743125	1.373750	-1.347500
21.289000	-6.283000	988.749023	-0.398125	6.715625	-1.268750
-9.272000	-29.951000	1010.708984	-8.925000	11.081875	2.874375
-23.851000	-16.714001	987.712036	-4.353125	6.396250	-2.786875
-15.921000	7.625000	977.342041	13.545000	-1.465625	-1.509375
-22.326000	17.446001	1013.759033	12.516875	-5.359375	-0.026250
-14.823000	-10.553000	1003.267029	-0.376250	-3.666250	-3.001250
-5.612000	-28.121000	1004.242981	-10.189375	-1.518125	-8.115625
8.601000	-22.387001	985.333008	-14.096250	-7.704375	-8.299375
-16.409000	-56.486000	1012.600037	-7.918750	-5.306875	-6.829375
-40.809002	-55.449001	1041.880005	-1.601250	-4.173750	-7.988750
-41.723999	-35.806999	1034.743042	-1.776250	-4.676875	-6.466250
-61.427002	-37.149002	1068.109985	-0.437500	-6.584375	-3.530625
-59.292000	-46.237999	1048.712036	-3.123750	-1.579375	-4.847500
-118.584000	-27.938000	1048.589966	-7.323750	0.249375	-5.175625
-195.932007	-40.504002	1062.254028	-15.662500	-4.528125	-3.473750
-257.602997	-48.799999	1013.637024	-1.238125	-4.361875	-1.408750
-239.791000	-103.700005	1068.598022	5.950000	4.252500	2.506875
-180.559998	-95.770004	1016.992004	21.371876	2.611875	4.309375
-95.831001	-53.070000	1072.624023	20.081249	11.633125	7.643125
-25.864000	-42.456001	998.447998	20.982500	-7.778750	10.561250
61.671001	-7.442000	994.788025	-6.658750	9.401875	14.704375
97.722000	-3.721000	1002.596008	-10.591875	-11.939375	12.639375
207.095001	54.839001	975.695007	-35.271252	5.551875	9.222500
222.833008	18.788000	937.387024	-40.604374	-7.888125	10.771250
213.988007	-106.872002	969.533997	-38.141251	-22.715000	3.088750
218.684998	-173.727997	1003.145020	12.963125	-4.900000	-2.541875
254.126007	-125.477005	1026.324951	31.132500	-10.263750	-13.873125
330.803009	-22.264999	1164.916992	24.631250	3.495625	-10.854375
359.106995	-32.146999	1110.870972	17.233126	14.787500	-6.378750
315.492004	-35.319000	1053.348022	8.850625	12.083750	-6.908125
283.710999	-31.232000	927.017029	16.961876	-0.743750	-14.791875
278.953003	-1.281000	1043.649048	23.913750	2.948750	-15.225000
206.973007	56.547001	968.863037	13.365625	31.574375	-0.883750
72.895004	-6.039000	967.582031	-24.639999	16.016874	7.665000
25.559000	-9.150001	976.061035	-17.447500	3.132500	4.602500
-81.069000	17.080000	963.739014	-30.856874	12.158125	4.414375
-140.117004	15.921000	833.442993	5.201875	-6.391875	-7.770000
-187.880005	10.004000	973.255005	6.680625	-25.856251	-1.658125
-188.307007	17.019001	966.057007	40.070625	-25.059999	2.598750
-169.945999	26.474001	1081.468994	25.256874	-22.513750	21.861876
-221.735001	-58.804001	1114.225952	13.886250	-12.315625	12.836250
-150.669998	21.960001	1119.899048	0.070000	3.119375	-8.876875
-110.836998	-18.300001	1063.108032	-7.844375	-1.369375	-13.785625
-81.496002	17.323999	1047.796997	-1.500625	13.851250	-24.241875
-10.919000	-0.122000	1040.416016	-5.936875	3.145625	-24.053749
0.671000	33.123001	1046.515991	0.721875	13.094375	-22.728125
-16.896999	77.042999	1059.813965	-1.404375	10.661875	-18.969999
-20.374001	89.792000	922.320007	-5.643750	8.627500	-7.940625
-31.781000	49.837002	1030.229004	-14.446250	9.550625	2.406250
-21.228001	11.407001	1024.312012	-5.744375	-0.533750	4.020625
-14.457000	9.638000	1083.421021	0.135625	10.600625	2.450000
-19.520000	17.873001	1017.541016	-11.458125	5.936875	4.191250
-15.311000	2.196000	966.057007	-9.699375	3.889375	4.515000
-6.710000	-14.884000	985.515991	-6.982500	6.728750	0.603750
-20.618000	-21.228001	1001.986023	-4.265625	-2.060625	-1.474375
-13.542000	-25.986000	1019.554016	-17.141251	-0.691250	-4.147500
-16.836000	-31.354000	1030.961060	-12.967500	-1.688750	-7.910000
-11.529000	-9.150001	982.832031	-6.466250	-1.159375	-8.815625
-16.592001	-15.860001	1021.994019	-0.735000	4.020625	-6.396250
-14.457000	-25.254000	1014.856995	-2.751875	-4.558750	-3.683750
-27.450001	-26.779001	1017.053040	0.485625	0.704375	-1.815625
-16.042999	-29.402000	1012.051025	4.676875	-1.242500	-1.701875
-12.383000	-42.028999	1014.552002	4.038125	0.275625	-3.145625
0.671000	-37.332001	988.749023	-0.293125	-2.191875	-7.481250
-10.675000	-36.234001	1035.109009	-3.465000	-0.595000	-8.522500
-14.701000	-27.938000	996.434998	-8.137500	-3.342500	-4.550000
-13.420000	-41.114002	1010.953003	-10.167500	-3.985625	-0.214375
-20.374001	-44.225002	1017.480042	-5.446875	-4.624375	1.684375
-8.052000	-47.824001	1033.035034	-0.546875	-3.906875	2.524375
-5.246000	-46.055000	1042.428955	7.560000	-4.939375	1.929375
-8.052000	-32.757000	1017.053040	5.153750	0.367500	1.675625
-34.831001	-41.358002	976.182983	6.173125	1.719375	1.890000
-71.492004	-42.395000	979.476990	4.081875	-1.369375	-1.233750
-86.498001	-28.792000	978.806030	0.441875	-0.940625	-4.178125
-152.561005	-23.973000	1015.345032	2.257500	4.116875	-2.310000
-161.283997	-69.662003	1076.527954	13.461875	-3.005625	4.930625
-170.190002	-7.564000	1070.000977	14.271250	14.476875	7.196875
-185.195999	-3.355000	1032.181030	15.531250	7.931875	9.340625
-156.587006	25.193001	1033.766968	10.535000	8.658125	9.235625
-144.203995	0.610000	1001.803040	20.890625	2.760625	9.515625
-100.162003	46.055000	1007.231995	23.441250	2.996875	9.590000
-47.824001	53.862999	996.739990	9.861250	-4.396875	15.028125
-47.580002	37.453999	1064.999023	-2.511250	-18.825624	16.594376
69.662003	9.577000	956.723999	-2.240000	-2.275000	12.245625
110.105003	20.496000	1035.474976	10.622500	-6.934375	6.553750
253.943008	50.691002	930.799011	9.948750	-4.099375	6.020000
355.630005	127.856003	1009.916016	0.573125	9.318750	4.655000
339.953003	25.315001	982.221985	-27.860001	-16.546249	-3.972500
345.199005	10.675000	1137.527954	-18.011875	-10.539375	-10.661875
381.006012	62.952000	1129.232056	3.115000	10.578750	-9.773750
357.032990	65.879997	1037.975952	17.508751	21.826876	-6.763750
256.016998	83.021004	1054.019043	-11.235000	18.969999	-6.711250
264.923004	99.430000	1043.039062	-18.226250	20.645624	-4.563125
143.960007	46.909000	1024.006958	-11.698750	24.167500	3.246250
143.593994	42.944000	981.246033	-6.693750	14.350000	-2.200625
32.939999	45.018002	1043.099976	-3.788750	1.465625	-2.747500
-105.042000	1.342000	942.999023	-23.362499	7.323750	-11.169375
-147.376007	-24.705000	929.457031	-14.901250	-16.388750	-34.151249
-165.675995	57.827999	923.540039	-20.956249	-14.236250	-32.838749
-161.528000	-23.607000	928.541992	-26.079374	-19.578125	-3.465000
-325.434998	-72.101997	970.449036	-6.951875	-32.641876	24.219999
-311.161011	-152.622009	1021.505981	17.316250	-15.575000	28.070000
-249.001999	-149.449997	1149.362061	0.074375	-18.270000	22.365000
-135.785995	-142.313004	1022.665039	-20.247499	13.155625	4.746875
-47.885002	-77.714005	1037.609985	-5.985000	17.010000	-6.912500
-27.755001	-72.223999	967.460022	-20.378750	5.827500	-5.499375
-14.518001	-92.415001	1009.122986	-2.205000	10.228750	-2.358125
-23.973000	-85.155998	1073.112061	-4.703125	10.902500	5.538750
-13.908000	-103.944000	1028.216064	-0.796250	1.238125	5.245625
-22.691999	-63.257000	1015.893982	21.748125	13.063750	4.025000
-6.649000	-30.378000	1019.981018	13.895000	6.938750	5.215000
-5.978000	-75.639999	1045.417969	-16.944374	2.922500	5.394375
-14.579000	-74.969002	960.140015	-4.064375	6.702500	-0.345625
-8.052000	-45.139999	1018.517029	-6.081250	3.443125	-2.480625
-18.726999	-85.095001	1025.837036	-3.731875	2.296875	-1.758750
-29.951000	-74.481003	998.325989	2.170000	3.784375	-0.393750
-34.526001	-86.498001	989.846985	-4.716250	-1.465625	0.201250
-33.611000	-75.579002	1007.598022	0.441875	3.106250	-2.218125
-24.156000	-67.587997	1049.016968	4.051250	-5.853750	0.673750
-37.393002	-67.344002	998.936035	4.725000	1.929375	2.248750
-35.136002	-53.741001	1021.140015	6.300000	-0.726250	0.560000
-48.494999	-47.763000	1026.141968	0.498750	3.911250	-0.428750
-39.528000	-53.375000	1001.376038	1.338750	3.040625	-1.561875
-26.779001	-64.476997	1006.255981	2.520000	1.518125	-3.425625
-39.040001	-67.954002	1027.728027	-1.478750	0.809375	-1.491875
-33.062000	-76.432999	1013.088013	-1.732500	-0.551250	-0.669375
-34.770000	-80.336998	980.941040	-0.761250	2.699375	1.010625
-51.910999	-78.385002	987.163025	3.128125	-0.297500	-1.312500
-51.789001	-62.830002	1008.574036	6.431250	-7.980000	-4.838750
-71.370003	-47.031002	1018.639038	7.896875	-3.080000	-5.718125
-95.098999	-37.332001	1022.970032	2.883125	-2.336250	-2.401875
-133.346008	-52.338001	1032.485962	1.408750	-1.780625	2.100000
-177.083008	-76.920998	1031.631958	4.086250	1.448125	3.171875
-205.020996	-26.291000	1034.620972	5.770625	6.006875	7.122500
-246.684006	-66.489998	1046.150024	8.688750	6.155625	10.692500
-245.158997	-53.436001	1076.284058	18.567499	14.319375	6.111875
-222.772003	-24.217001	1009.184021	23.804375	28.940624	1.955625
-168.177002	2.562000	991.432983	1.837500	6.593125	-1.999375
-90.646004	-8.540000	957.944031	2.121875	5.551875	7.446250
-38.735001	66.124001	966.606018	-4.265625	12.446875	16.611876
7.869000	-29.036001	932.018982	-36.789375	-30.900625	17.101875
102.846001	17.568001	925.187012	-18.558750	-22.942499	5.941250
165.432007	29.280001	962.153015	8.798125	-14.485625	6.571250
214.720001	-42.700001	949.953003	2.139375	-9.625000	3.377500
234.057007	-85.155998	1097.817017	-15.277500	-25.926250	-13.746250
242.658005	-40.015999	1131.183960	1.483125	2.034375	-8.312500
262.299988	-73.200005	1176.506958	15.404375	-6.663125	-4.563125
302.011017	-57.827999	1141.737061	18.746876	18.375000	-0.013125
393.145020	38.796001	1052.615967	12.744375	28.739374	2.817500
372.709991	5.673000	1151.130981	17.985624	21.336876	15.382500
304.938995	-70.210999	1169.248047	0.323750	27.321875	-0.870625
326.899017	13.298000	1024.556030	-4.633125	21.083124	-0.910000
194.834000	39.466999	816.851013	-19.333124	33.915001	4.300625
20.801001	39.589001	854.731995	-28.594999	9.506875	13.063750
-64.965004	-11.529000	789.096008	1.207500	-16.988125	9.436875
-185.013000	-37.820000	1008.085999	-5.385625	-19.114374	-14.078750
-268.949005	34.647999	844.179016	6.216875	-37.576874	-46.493126
-314.760010	56.547001	992.713989	-19.617500	-36.994999	-45.801876
-345.382019	-34.098999	963.494995	-8.662500	-50.369373	-32.939377
-325.679016	-60.695000	1170.895020	2.686250	-29.828751	0.796250
-296.825989	-150.731003	1150.582031	8.351875	-28.411249	10.364375
-163.723999	-123.890999	1027.118042	-7.398125	15.443750	2.231250
-110.653999	-131.089005	1025.471069	-18.138750	12.009375	-7.258125
-34.221001	-107.848000	1122.400024	-2.078125	-7.761250	-14.039375
-29.341000	-86.437004	1127.401978	14.306250	18.760000	-13.199375
13.908000	-69.784004	998.204041	0.039375	5.136250	-12.670000
23.729000	-44.103001	987.651001	-5.009375	23.209375	-8.798125
27.205999	-58.316002	1045.661987	1.360625	7.245000	-5.385625
41.297001	-43.554001	980.392029	3.386250	9.594375	1.745625
29.463001	-23.058001	1015.345032	5.626250	5.923750	3.937500
9.821000	-23.790001	996.069031	-1.925000	4.423125	4.554375
12.322001	-30.439001	1002.108032	3.338125	1.767500	0.682500
18.239000	-11.773000	1041.087036	15.793750	6.304375	-0.971250
15.799000	9.516000	1023.945984	6.881875	-4.366250	4.445000
5.368000	-0.915000	1007.903015	6.142500	7.056875	9.428125
1.403000	-12.871000	1004.791992	3.416875	-2.296875	7.437500
9.821000	-17.080000	990.335022	0.678125	2.699375	4.401250
13.237000	-14.518001	1023.518982	0.896875	-3.285625	1.465625
12.810000	-9.882000	986.980042	-0.520625	0.288750	3.395000
-5.002000	-19.032000	1011.867981	0.376250	-3.766875	3.465000
-4.697000	-15.006001	1035.230957	2.471875	-4.930625	2.795625
7.564000	7.747000	1026.020020	5.245625	-0.673750	2.415000
17.080000	10.492001	1023.213989	2.782500	-2.331875	3.386250
11.102000	5.002000	1011.807007	-4.550000	-1.351875	2.502500
12.810000	-5.795000	1008.085999	-8.106875	-1.579375	1.728125
3.538000	-20.313000	1012.416992	-3.871875	0.008750	-1.386875
7.137000	-15.494000	990.762024	-7.511875	-4.160625	-2.148125
-17.873001	-6.893000	971.424988	-1.133125	-5.035625	-4.046875
-39.650002	-11.651000	992.713989	10.171875	-2.681875	-7.332500
-55.327000	-0.244000	1070.794067	3.049375	-9.594375	-5.341875
-54.167999	-25.315001	1032.119995	0.175000	5.359375	-1.155000
-94.183998	-28.365000	1052.372070	11.239375	8.798125	-2.410625
-127.124001	-29.768000	1063.596069	1.833125	9.253125	1.675625
-177.998001	-46.970001	1055.910034	8.360625	11.239375	1.885625
-225.822006	1.220000	1030.229004	28.446251	15.356250	9.253125
-229.360001	58.072002	954.955017	26.451250	12.285000	13.160000
-172.264008	32.390999	943.975037	30.152500	16.121876	15.098125
-141.337006	51.423000	971.669006	10.845625	17.018749	5.473125
-34.160000	156.160004	1050.297974	-14.529375	32.081875	-2.200625
44.469002	66.794998	1051.945068	-63.896873	34.969376	-2.563750
113.033005	11.834001	962.763000	-26.315624	14.708750	1.505000
204.594009	-19.093000	975.512024	-3.885000	-6.531875	3.898125
326.350006	11.346000	990.822998	-6.798750	-35.953751	2.734375
370.941010	10.614000	1040.354980	8.365000	-23.226875	20.470625
333.487000	6.832000	1136.674072	9.406250	-7.997500	23.638124
408.821991	33.977001	1076.954956	13.663125	-4.882500	15.566250
338.671997	27.755001	1042.612061	18.646250	12.495000	8.968750
230.824005	45.201000	1029.192017	0.778750	29.868126	-0.490000
81.434998	57.278999	1070.794067	8.920625	24.237499	-8.456875
32.452000	102.113998	1023.092041	12.026875	1.421875	-10.027500
-35.624001	17.323999	1063.229980	-9.244375	-0.516250	-19.578125
-56.730000	69.417999	987.468018	-21.717501	8.798125	-21.476875
-99.795998	34.709000	1013.148987	-34.523125	-6.164375	-9.139375
-195.932007	-7.320000	957.882996	0.958125	-0.708750	-6.619375
-229.421005	16.836000	976.000000	14.564375	-20.702499	3.036250
-323.360992	19.459000	1002.351990	22.067499	-16.528749	0.730625
-328.485016	4.880000	1001.742004	2.865625	-9.760625	-14.096250
-340.257996	29.585001	996.496033	-35.958126	4.436250	-34.711250
-282.856995	-57.889000	1058.899048	-17.775625	-23.926874	-36.430626
-129.442001	-2.257000	996.191040	-17.412500	-11.081875	-28.520624
-112.301003	-50.751999	1085.433960	15.150625	12.075000	-8.404375
-35.685001	-20.069000	991.432983	22.531250	-14.004375	-4.720625
-0.732000	6.588000	1010.465027	12.127500	11.182500	3.596250
-41.907001	11.895000	1030.167969	7.940625	2.139375	12.971875
20.313000	25.925001	954.772034	-1.837500	-11.873750	18.235001
-48.190002	-20.313000	1034.743042	10.937500	4.900000	22.299376
-36.904999	9.211000	1006.866028	16.603125	-13.225625	13.685000
-42.944000	26.291000	1036.084961	3.885000	5.796875	6.496875
-34.342999	22.143000	984.783997	0.402500	-2.572500	-0.078750
-22.691999	40.015999	1006.927002	-5.630625	15.290625	2.200625
-60.695000	27.999001	1035.657959	-0.122500	12.464375	7.822500
-48.129002	34.342999	1038.525024	6.133750	-0.109375	5.998125
-42.334000	46.970001	993.445984	9.126250	8.706250	5.608750
-48.373001	54.656002	1022.359985	15.233750	2.450000	3.045000
-18.726999	92.292999	987.590027	11.208750	-14.113750	1.588125
-39.284000	81.739998	1019.859009	5.661250	7.651875	4.672500
-41.297001	85.522003	1008.330017	4.917500	-5.783750	4.077500
-48.617001	50.325001	1041.880005	0.030625	8.203125	0.494375
-52.704002	81.069000	1021.262024	-2.388750	16.025625	0.870625
-53.497002	77.042999	990.579041	-7.105000	1.548750	3.294375
-52.216000	65.636002	1002.901001	-1.645000	2.611875	5.963125
-61.671001	62.890999	1002.962036	2.345000	-0.319375	5.980625
-52.277000	62.525002	1006.622009	4.077500	-6.912500	5.534375
-58.865002	60.268002	986.369995	0.087500	-1.675625	4.160625
-68.197998	58.194000	1013.332031	-0.752500	-6.168750	2.813125
-88.754997	67.222000	989.725037	-5.355000	-4.112500	2.515625
-138.104004	58.804001	1020.957031	-4.291875	-2.913750	-0.599375
-216.977005	35.075001	1053.225952	-0.905625	-11.147500	-8.710625
-228.628006	60.024002	1074.636963	-1.133125	1.951250	-17.080000
-216.550003	108.580002	1020.041992	1.828750	6.811875	-17.526251
-209.473999	103.028999	1007.598022	-5.324375	11.545625	-4.287500
-232.166000	66.734001	1036.817017	-0.070000	6.711250	5.394375
-226.981003	116.205002	1037.365967	-18.606874	5.980625	14.616875
-217.281998	33.916000	997.228027	-18.068750	-1.911875	14.170625
-144.387009	40.443001	994.971008	-23.034374	11.799375	8.325625
-44.164001	40.138000	925.979980	-10.701250	-30.231251	7.997500
39.345001	-49.837002	1042.001953	-7.511875	4.650625	-6.212500
72.895004	62.890999	930.859985	6.527500	-28.638750	1.653750
147.009995	60.817001	996.007996	-20.890625	-30.065001	-8.351875
254.370010	29.707001	894.199036	-12.810000	-5.910625	-7.678125
299.326996	-48.678001	973.559998	5.560625	-11.515000	-7.013125
345.931000	0.122000	1066.157959	2.983750	-4.865000	-2.638125
316.589996	-19.153999	1153.448975	-3.946250	-13.391875	-4.558750
338.428009	-13.969000	1202.614990	-19.180000	21.568750	-2.012500
375.394012	-36.539001	1121.363037	-25.843124	32.081875	7.730625
307.440002	-56.181000	1080.005005	-11.090625	59.005627	16.690624
219.783005	-139.384995	995.520020	20.203751	17.101875	3.788750
301.035004	-16.042999	1009.855042	21.883751	1.417500	-4.611250
127.246002	71.431000	925.065002	23.148125	-6.654375	5.648125
85.948997	26.413000	850.278992	-18.969999	-0.280000	13.203750
-244.488007	-55.144001	905.850037	0.511875	-36.955624	8.465625
-216.794006	-60.573002	869.921021	-6.680625	-37.196251	-15.041250
-156.464996	5.673000	997.228027	24.184999	-26.442499	-35.105000
-184.341995	151.218994	978.562012	5.980625	-23.699375	-17.403749
-157.501999	-26.108000	1039.623047	5.276250	-43.382500	-5.770625
-219.600006	41.174999	1155.279053	1.960000	1.347500	-5.250000
-193.369995	28.914000	1050.114990	-0.406875	-10.224375	7.240625
-137.005997	-23.790001	1077.138062	-7.406875	7.927500	6.278125
-90.889999	-37.576000	1113.128052	-3.189375	22.723749	-1.754375
15.250000	-23.302000	1028.886963	-13.431250	8.233750	-11.812500
55.632000	-14.274000	1028.155029	-13.781250	25.217501	-13.076875
56.424999	1.708000	1024.677979	-9.183125	8.001875	-10.080000
52.216000	9.577000	1025.898071	-7.297500	14.516250	-4.882500
27.205999	-10.309000	1018.455994	3.871875	6.965000	-0.805000
35.501999	22.082001	976.000000	8.032500	-4.147500	-2.883125
30.439001	20.374001	970.327026	5.897500	0.144375	1.242500
37.393002	5.002000	988.992981	5.678750	-10.045000	4.081875
45.506001	-13.481000	1061.948975	-5.123125	-5.543125	4.808125
34.038002	-15.616000	1049.322021	-6.890625	-0.446250	2.585625
10.431000	-12.688000	1024.433960	-4.790625	13.921250	-1.999375
16.653000	-0.854000	993.934021	-6.426875	5.718125	-3.950625
33.489002	2.013000	1002.778992	-5.508125	-5.206250	-1.614375
34.770000	-20.069000	1003.389038	-5.433750	4.270000	0.678125
34.709000	-24.278000	1003.816040	-2.734375	-4.869375	3.066875
24.766001	-44.042000	1015.161987	-4.243750	1.951250	3.272500
15.311000	-47.640999	1037.854004	-2.699375	0.490000	1.343125
30.805000	-36.173000	1006.134033	-2.165625	1.872500	-1.356250
35.990002	-22.936001	1007.415039	-2.638125	3.500000	-3.675000
47.519001	-20.130001	996.801025	0.017500	-5.245625	-4.760000
44.834999	-16.714001	1019.676025	2.244375	-1.316875	-3.255000
31.476000	-29.158001	992.043030	-2.625000	-3.023125	0.266875
13.603000	-36.722000	1020.835022	0.048125	-1.185625	2.642500
17.385000	-48.617001	1043.893066	0.678125	-5.941250	1.443750
-21.837999	-30.195000	1031.937012	0.441875	-6.702500	-1.911875
-81.191002	-16.653000	1009.794006	4.865000	-12.000625	-2.016875
-153.292999	-20.496000	1068.842041	-0.371875	5.626250	1.723750
-210.632996	-78.202003	1004.548035	3.552500	2.222500	5.206250
-196.054001	-66.917000	1064.206055	-11.738125	21.245001	6.606250
-168.360001	-47.945999	1014.186035	-0.043750	8.312500	3.456250
-147.315002	1.159000	1067.378052	16.555000	-5.705000	8.763125
-177.509995	-68.869003	1054.873047	46.965626	26.954374	8.264375
-175.009003	53.192001	950.989990	35.314999	26.394375	-0.017500
-63.684002	112.484001	938.546021	25.987499	31.823750	-0.490000
17.446001	27.084000	994.666016	-21.354376	-4.169375	-6.711250
160.673996	10.858000	975.207031	-33.136250	2.143750	-12.499375
351.726013	41.968002	1046.577026	-37.708126	-4.449375	-3.355625
343.247009	-2.867000	1159.609985	-19.433750	-17.863125	6.715625
419.009003	2.623000	1136.917969	1.190000	-22.601250	13.820625
283.528015	-19.276001	1162.964966	34.558125	-8.198750	12.236875
396.622009	-6.832000	1045.906006	49.805000	-1.763125	-4.379375
367.097992	136.335007	1060.180054	25.200001	42.052502	-25.698750
374.235016	168.481995	1119.959961	-0.441875	6.873125	-25.742500
352.519012	75.945000	1003.999023	-18.143126	3.473750	-15.391250
280.356018	96.806999	878.156006	11.326875	13.868750	12.691875
106.139999	60.024002	861.869019	2.616250	1.211875	23.148125
-55.021999	12.566000	893.161987	4.545625	-12.985000	21.157499
-140.300003	41.174999	863.272034	-10.342500	-4.073125	0.061250
-184.341995	-1.220000	990.030029	32.221874	-46.777500	-11.401250
-224.785004	95.526001	908.656006	-0.612500	0.275625	-32.138748
-202.093002	110.959000	969.595032	-13.488125	-47.639374	-24.425625
-201.238998	63.257000	981.856018	-7.371875	-16.148125	1.273125
-193.369995	18.483000	997.593994	16.196251	-15.015000	12.201875
-181.352997	96.868004	1089.093994	12.985000	-22.964375	24.959375
-75.822998	75.152000	1015.833008	-4.261250	-13.063750	27.326250
19.337000	58.438000	1146.006958	-11.869375	-3.053750	18.125626
80.093002	26.779001	1150.399048	-27.405001	17.701250	9.288125
84.119003	27.023001	1051.334961	-24.456249	29.719376	1.168125
96.868004	30.073000	1016.138000	0.323750	27.982500	-0.122500
42.028999	35.136002	1004.853027	5.901875	19.026875	0.958125
49.166000	33.733002	1006.377991	10.425625	27.361250	-8.360625
25.802999	46.848000	979.294006	-0.498750	6.641250	-12.656875
40.199001	46.299000	1000.278015	6.978125	17.504375	-18.361876
27.084000	77.958000	976.549011	1.255625	2.209375	-11.471250
7.503000	79.422005	1030.594971	-7.358750	8.570625	-0.997500
6.954000	48.129002	1019.371033	-16.423750	1.211875	4.620000
4.453000	27.205999	1034.926025	-4.926250	2.358125	3.780000
-5.368000	28.059999	1064.816040	-5.083750	2.003750	1.045625
-6.161000	32.452000	1027.057007	-5.420625	4.326875	-4.011875
-11.041000	41.785000	992.653015	-8.658125	10.128125	-4.786250
-8.967000	28.975000	969.168030	-14.805000	2.078125	-2.358125
-6.527000	11.529000	983.929993	-16.480625	0.888125	1.045625
-5.490000	-2.562000	1004.548035	-10.780000	-3.163125	-0.008750
-4.880000	-9.882000	1006.134033	0.796250	-3.434375	-1.890000
-31.049000	-5.673000	1042.307007	5.123125	-3.430000	-3.425625
-24.583000	-13.542000	1032.302979	1.631875	-5.110000	-5.573750
-54.290001	-3.111000	1039.500977	1.684375	-0.026250	-7.301875
-115.107002	15.738000	1021.627991	-3.150000	1.098125	-3.876250
-209.108002	-22.387001	1050.176025	-0.113750	-5.473125	2.226875
-238.449005	-63.623001	1079.760986	2.861250	4.217500	14.529375
-217.953003	-104.309998	1106.540039	19.228125	12.521250	12.026875
-193.065002	-46.726002	1079.516968	10.451875	8.246875	9.848125
-183.305008	59.902000	980.514038	-19.293751	31.815001	12.018125
-191.966995	27.145000	968.984985	-35.048126	21.669374	23.603125
-193.492004	-15.799000	760.364990	-38.360001	16.948750	11.388125
-137.677002	26.474001	869.677002	1.833125	-8.561875	10.500000
-68.625000	-47.091999	891.332031	25.991875	-29.500626	-8.124375
130.173996	-43.126999	878.583008	49.896873	8.513750	-11.834375
51.667000	60.695000	1080.187988	54.656876	-23.275000	-14.896875
375.882019	148.901001	974.658020	19.136250	-16.253124	-6.912500
297.679993	26.108000	1192.794067	-3.762500	-19.503750	15.881250
305.549011	18.483000	1266.177002	-32.073124	10.005625	2.559375
261.263000	36.050999	1219.511963	-19.617500	10.644375	2.248750
294.507996	-119.987000	1122.217041	-13.991250	2.843750	-19.495001
302.255005	-75.884003	1104.709961	16.143749	2.078125	-36.071877
273.036011	26.962000	1014.734985	17.150000	29.881250	-33.018124
237.046005	161.528000	965.752014	2.003750	7.385000	-9.616250
95.403999	99.430000	952.027039	2.515625	-0.765625	20.138124
84.302002	20.130001	969.533997	-5.858125	-1.089375	26.145000
-11.651000	73.200005	982.466003	-33.289375	-1.356250	17.482500
8.357000	-50.386002	953.613037	-45.469376	6.951875	-10.176250
-73.321999	-36.783001	976.671021	-35.319374	-3.710000	-10.885000
-114.436005	-90.767998	920.124023	-22.592501	3.670625	-17.556875
-175.497009	-11.468000	912.499023	-11.952500	4.064375	13.501250
-223.138000	-105.164001	960.567017	9.253125	-14.870625	22.421875
-256.139008	-142.740005	949.281982	32.611252	-1.019375	10.316250
-244.488007	-43.005001	1088.666992	24.600624	17.473749	-7.573125
-202.214996	-36.050999	1038.159058	7.765625	-3.670625	-12.656875
-163.419006	-29.768000	1029.497070	8.990625	1.124375	-14.914375
-132.369995	-56.424999	1070.183960	13.440000	-0.227500	-15.268750
-79.361000	-38.979000	1059.082031	3.434375	4.278750	-17.810625
-72.041000	-9.333000	1014.613037	-6.020000	14.424375	-13.361250
-62.341999	-18.177999	1036.634033	9.515625	5.836250	-7.231875
-68.747002	19.520000	1042.307007	7.525000	10.508750	-0.796250
-55.570999	4.880000	994.299988	8.115625	-1.535625	7.485625
-79.910004	21.106001	1018.760986	10.303125	1.203125	15.890000
-55.327000	34.038002	1020.895996	-3.845625	-2.555000	17.425625
-24.644001	13.176001	983.991028	-3.128125	1.614375	19.381250
-58.926003	25.925001	1017.906982	-7.529375	-1.155000	18.261250
-43.431999	-23.118999	1006.072998	-2.476250	-7.599375	9.900625
-23.851000	5.368000	1025.531982	-3.832500	-10.828125	-0.030625
-23.118999	-3.294000	1029.375000	-9.515625	-4.606875	-3.740625
-16.348000	3.294000	1022.359985	-9.975000	-0.643125	-5.193125
-17.812000	-10.614000	1005.341003	-13.925625	-2.380000	-2.336250
-34.526001	-33.428001	1018.700012	-3.928750	2.384375	1.776250
-29.524000	-39.833000	1017.541016	-3.841250	-1.745625	1.623125
-42.456001	-29.585001	1021.872009	0.538125	2.257500	-1.181250
-50.874001	-18.788000	992.775024	0.345625	5.906250	-3.303125
-42.272999	-11.346000	1011.684998	-0.848750	-1.881250	-3.793125
-32.879002	-30.073000	1027.239990	3.224375	-1.071875	-1.898750
-46.116001	-18.666000	1032.364014	1.421875	0.166250	0.052500
-57.278999	-36.783001	1015.223022	0.266875	0.529375	1.268750
-72.590004	-20.434999	1013.332031	2.436875	1.028125	1.141875
-122.549004	-12.871000	1027.301025	-7.415625	-9.909375	2.905000
-187.757996	-21.106001	1054.506958	-1.653750	-1.732500	2.288125
-243.817001	32.879002	1051.151978	3.005625	-0.385000	-5.057500
-244.975998	78.812004	1083.969971	8.190000	8.032500	10.666250
-251.076004	-23.241001	1057.984009	-12.810000	19.473125	19.022499
-209.046997	-78.140999	972.889038	-8.465625	-6.733125	14.008750
-167.078995	-70.028000	1010.830994	18.099375	9.913750	6.120625
-139.994995	-87.413002	901.335999	22.785000	0.656250	-4.440625
-104.188004	-10.980000	968.375000	26.958750	-3.648750	-11.475625
-52.887001	21.045000	884.195007	-10.045000	11.545625	-5.057500
49.593002	49.593002	901.763000	-17.920000	-42.533749	-16.344999
247.294006	69.417999	942.389038	-35.866249	-19.761875	8.789375
304.207001	-119.316002	1106.174072	-18.261250	-10.753750	16.550625
304.329010	-131.882004	946.536987	-9.944375	-10.504375	2.349375
302.498993	-31.354000	1206.640991	-26.985001	-27.444374	-21.393749
336.537018	-94.367004	1135.026978	-19.691875	-1.697500	-20.453125
346.175018	-57.096001	1017.541016	19.241249	18.020624	-20.868750
353.860992	10.736000	1021.018005	57.758751	23.708124	-16.476250
261.446014	75.639999	1012.112000	38.933125	14.735000	-4.869375
194.468002	117.181000	1061.888062	10.688125	8.925000	9.533125
211.121002	75.517998	998.570007	-12.888750	-16.056250	25.659374
142.313004	-116.144005	1055.483032	-46.160625	-17.850000	22.032499
137.860001	-91.927002	960.200989	-48.308750	19.770624	21.350000
-38.003002	-133.468002	884.134033	-15.141875	15.229375	-6.706875
-5.246000	-174.460007	974.048035	-1.251250	2.191875	-28.411249
-158.904999	-43.066002	851.437988	19.359375	-8.168125	-24.753750
-173.972000	15.677000	1143.018066	24.876249	-9.174375	-0.691250
-274.317017	18.971001	987.528992	28.573126	-15.719375	15.601250
-232.714996	-71.613998	1040.660034	21.174999	0.634375	17.898125
-146.460999	2.440000	1103.612061	25.414375	5.954375	3.110625
-97.356003	60.817001	1011.014038	6.934375	3.858750	-0.533750
-12.261000	36.112000	1057.801025	-8.925000	10.285625	-9.594375
42.334000	38.307999	1047.187012	-17.307501	0.525000	-13.063750
47.031002	17.690001	1044.320068	-11.156250	20.321875	-10.710000
37.637001	19.580999	1006.195007	-9.677500	13.440000	-8.570625
13.969000	-51.667000	1063.108032	-3.548125	9.104375	-9.121875
-3.660000	-38.979000	1032.852051	-2.218125	6.164375	-10.749375
-5.368000	-38.307999	1007.293030	-8.566250	5.044375	-8.863750
-1.464000	-33.733002	994.483032	-13.606250	11.659375	-7.853125
-1.159000	-28.670000	1003.572021	-17.736250	2.502500	-4.633125
-0.610000	-46.055000	1004.182007	-9.716875	6.304375	-1.308125
-14.030000	-44.408001	1031.265991	3.806250	3.062500	1.295000
-30.622000	-47.519001	1003.877014	10.504375	-2.034375	3.898125
-53.985001	-57.035000	1048.346069	10.740625	2.445625	1.925000
-40.320999	-17.873001	990.518005	4.882500	-0.389375	-0.039375
-16.104000	-39.650002	1026.385986	-7.721875	6.746250	-4.033750
22.021000	-23.118999	1009.062012	-7.931875	2.808750	-9.415000
71.065002	-22.570000	1014.796021	-0.966875	12.153750	-8.960000
121.695000	-25.986000	1044.380981	-3.753750	5.285000	-8.540000
152.805008	-31.232000	1048.041016	-2.511250	14.437500	-3.683750
139.690002	-4.819000	1012.905029	0.476875	13.663125	0.048125
130.113007	-16.836000	1002.108032	4.598125	5.219375	1.977500
51.728001	-2.501000	992.043030	3.561250	6.374375	0.113750
24.400000	-35.501999	1001.803040	1.351875	-4.939375	2.301250
13.786000	-18.239000	1030.838989	8.050000	-8.798125	4.830000
-19.093000	-5.734000	986.919006	18.733749	3.430000	7.975625
-43.554001	-13.115000	960.018005	12.884375	1.592500	7.678125
-56.181000	-22.997000	1050.847046	-0.371875	-5.508125	3.990000
-40.687000	-7.076000	1052.128052	-9.423750	-9.065000	-2.865625
-25.437000	-6.954000	931.591980	-1.141875	0.271250	-9.651250
-53.008999	-5.185000	990.640015	-10.473750	-15.605625	-14.525000
-162.259995	-37.271000	901.824036	-12.604375	-17.430000	-12.866875
-242.658005	-72.346001	996.069031	-11.488750	-36.435001	-3.959375
-316.773010	-118.035004	1118.374023	1.990625	-35.100624	-0.052500
-317.932007	-114.619003	1062.864014	24.150000	-17.438749	2.493750
-287.248993	-90.889999	1119.776978	22.347500	-18.073126	5.521250
-257.175995	-55.510002	1167.906006	-13.295625	12.385625	2.445625
-229.482010	-60.878002	1076.771973	-9.861250	11.567500	-5.425000
-162.809006	-76.555000	1037.915039	-1.911875	20.794374	-4.970000
-146.766006	-7.381000	1001.864014	-3.766875	57.618752	2.222500
-120.658005	-42.882999	972.156982	-11.773125	2.441250	4.991875
-86.193001	-64.293999	930.616028	-10.924375	43.981876	11.716250
-25.925001	-48.129002	826.367004	-11.116875	9.988125	9.769375
37.149002	-8.418000	804.223999	-7.472500	-16.568125	17.399376
137.677002	-86.375999	979.476990	1.124375	14.490000	-14.109375
249.367996	69.295998	1040.843018	35.026249	-5.761875	-3.206875
293.532013	18.910000	1094.401001	-16.528749	-22.084999	-4.497500
261.628998	-7.137000	1157.657959	5.923750	-14.651875	5.096875
227.529999	-5.002000	1171.993042	-1.483125	-32.248123	10.867500
175.557999	-31.110001	1111.907959	13.072500	-3.841250	12.757500
114.192001	-8.967000	1090.802002	17.206875	2.187500	10.548125
64.476997	-10.858000	1028.459961	8.925000	9.349375	7.231875
40.260002	25.437000	975.755981	14.516250	2.909375	5.236875
9.089000	22.936001	1016.504028	5.363750	3.373125	3.841250
12.444000	8.357000	1011.684998	-1.640625	3.600625	-0.603750
1.098000	10.126000	1032.852051	-3.163125	0.595000	-3.010000
-0.610000	7.686000	1025.837036	-2.419375	0.350000	-5.066250
21.837999	26.962000	1017.296997	2.016875	6.361250	-2.450000
0.732000	19.520000	1016.015991	3.736250	2.240000	0.253750
-2.440000	-6.039000	1003.205994	-2.520000	5.801250	0.433125
-18.117001	1.586000	1007.598022	-2.786875	3.688125	-1.338750
-10.431000	12.444000	1010.708984	-5.009375	2.231250	-1.251250
-13.969000	2.379000	1026.812988	2.629375	0.188125	-0.393750
-4.026000	5.368000	1017.480042	10.740625	-1.246875	-2.226875
1.586000	26.474001	1018.944031	9.909375	-1.470000	-3.403750
6.954000	43.493000	1023.458008	-0.398125	1.430625	-3.543750
-0.854000	35.014000	1005.280029	-7.647500	-0.896875	-0.538125
-2.928000	17.995001	1016.077026	-6.925625	0.923125	-1.995000
-0.061000	26.169001	1006.744019	-3.626875	-0.984375	-3.364375
22.997000	20.130001	1008.330017	3.180625	0.870625	-2.607500
45.567001	14.091001	1056.458984	8.535625	-2.957500	-5.022500
82.899002	38.552002	1045.174072	10.333750	2.537500	-7.564375
112.667000	47.824001	1064.693970	5.495000	7.730625	-4.707500
129.625000	35.196999	1091.411987	0.402500	9.231250	-3.701250
169.031006	34.098999	1050.664062	6.501250	9.441250	-4.270000
189.649002	54.656002	1029.313965	3.093125	8.973125	-0.175000
216.916000	46.360001	970.205017	2.480625	1.894375	3.263750
184.464005	37.820000	947.268982	-10.766875	0.030625	-2.275000
136.274002	30.316999	918.294006	-28.533751	-13.479375	-5.858125
103.273003	12.566000	965.630005	-22.478750	-19.840626	-10.727500
12.444000	81.251999	964.288025	19.809999	-0.371875	-3.526250
8.296000	93.635002	1019.127014	13.269375	-21.231874	-0.026250
-51.179001	39.284000	1121.911987	1.526875	-17.001249	6.120625
-78.933998	13.359000	994.605042	0.441875	-10.167500	-2.520000
-107.360001	24.644001	1047.248047	2.826250	-9.331875	-5.726875
-136.274002	17.995001	937.630981	13.221250	0.258125	-7.743750
-167.567001	22.997000	952.148987	19.556250	-11.838750	-2.826250
-211.609009	40.199001	1075.307983	22.955626	-17.097500	4.046875
-207.888000	15.372000	1105.136963	13.549375	-14.656250	4.545625
-268.399994	31.598000	1175.409058	-6.759375	9.918125	-4.095000
-320.738007	0.366000	1132.404053	-39.803749	13.146875	-10.298750
-293.410004	-20.252001	1118.801025	-43.518124	20.273750	-12.236875
-242.779999	1.647000	1099.586060	-12.092500	34.448750	-7.739375
-164.151001	24.095001	972.462036	17.171875	46.484375	7.017500
-129.014999	58.255001	967.033020	13.361250	29.452499	22.662500
-120.719002	24.644001	1026.812988	21.813749	16.292500	28.717501
-48.129002	54.229000	883.158020	19.123125	40.184376	16.135000
-11.407001	74.054001	936.716003	26.788124	33.293751	4.278750
66.001999	86.132004	890.051025	2.699375	-1.960000	-3.657500
60.451000	124.806000	1064.023071	-7.323750	9.848125	-5.906250
186.477005	69.235001	1022.604004	-36.977501	1.553125	-17.775625
200.568008	104.249001	1029.313965	-23.209375	-27.580000	-8.268750
135.359009	44.042000	1053.836060	-22.295000	-11.703125	3.364375
137.615997	-15.555000	1056.581055	-9.861250	-16.283751	5.591250
47.214001	19.642000	1044.807983	-1.745625	9.690625	9.738750
29.402000	27.938000	997.228027	1.281875	-14.371875	13.387500
-7.381000	8.601000	982.466003	6.864375	-6.641250	18.418751
-29.158001	37.271000	1010.098999	11.493125	-12.022500	16.961876
-27.267000	50.325001	1024.677979	15.277500	-6.225625	15.964375
-47.275002	77.958000	1030.107056	3.119375	-6.243125	12.866875
-40.138000	49.897999	1059.630981	-8.220625	-5.971875	7.538125
-35.868000	71.675003	1008.208008	-9.432500	-3.119375	4.895625
-34.952999	24.278000	1030.534058	-11.816875	-5.757500	4.081875
-26.291000	-3.233000	1016.015991	-12.849375	-0.700000	-2.165625
-14.945000	12.688000	1012.356018	-15.771875	5.425000	-2.034375
-25.986000	-25.010000	1007.109985	-12.740000	-0.240625	0.927500
-21.350000	-36.112000	1015.161987	-8.999375	1.487500	1.281875
-24.521999	-10.065001	1022.665039	5.210625	-0.315000	1.443750
-30.988001	3.233000	1007.415039	6.448750	2.642500	-0.774375
-29.463001	16.042999	1020.468994	3.010000	-0.166250	-2.751875
-28.975000	1.403000	1021.200989	-1.098125	-1.111250	-3.596250
-11.895000	5.124000	1015.406006	-5.201875	-1.483125	-3.084375
-15.677000	1.769000	1016.869995	-6.063750	-0.953750	-1.951250
-15.250000	-5.490000	1024.739014	-1.946875	-2.905000	0.800625
-17.812000	-17.629000	1041.208984	0.266875	1.360625	1.093750
-7.076000	-14.823000	1041.574951	-3.416875	2.533125	-4.016250
19.215000	-8.296000	1033.339966	-4.256875	8.295000	-6.155625
44.591000	-14.518001	1022.116028	-2.104375	13.413750	-2.520000
82.837997	-17.812000	1033.889038	1.071875	4.130000	4.637500
157.074997	-20.923000	1061.765991	-1.911875	8.561875	14.218750
204.533005	-58.316002	1092.571045	-3.626875	14.564375	16.668751
171.227005	-8.418000	966.057007	-5.363750	23.520000	7.975625
163.419006	26.779001	944.341003	8.553125	13.759375	12.206250
109.068001	-32.513000	995.520020	26.066250	3.460625	-1.417500
107.055000	47.031002	997.289001	29.063126	-5.897500	-9.576875
100.589005	81.008003	1062.192993	22.469999	-25.650625	-17.360001
-13.542000	73.749001	1027.301025	8.343125	-1.767500	2.038750
-135.298004	6.344000	877.302002	-15.470000	-33.936874	0.000000
-282.063995	-1.403000	868.822998	-22.168125	-28.739374	-11.340000
-338.367004	-40.748001	1042.428955	-22.618750	-57.010624	-33.788124
-302.864990	-15.128000	1129.109985	-17.167500	-45.548126	-34.628124
-298.717010	-28.304001	1158.268066	-13.339375	-22.303749	-14.196875
-267.302002	-86.253998	1054.750977	-17.613750	-28.608126	1.452500
-267.058014	-76.311005	1123.071045	-14.227500	4.204375	-2.073750
-189.587997	-106.567001	1132.037964	-9.047500	-1.343125	2.751875
-210.449997	-77.409004	1116.727051	13.960625	26.254375	8.780625
-173.789001	-33.062000	1100.317993	2.905000	40.429375	10.976875
-128.527008	-47.519001	1000.827026	0.109375	37.257500	10.968125
-77.897003	-30.805000	1071.648071	-1.890000	36.080624	12.643750
-32.757000	-73.504997	922.015015	8.981875	21.463751	10.399375
49.348999	-0.183000	1016.504028	40.901875	31.823750	8.557500
65.453003	6.039000	1044.563965	-6.160000	8.106875	-4.453750
91.805000	-1.525000	956.906982	-13.028750	1.719375	-7.638750
145.912003	-29.768000	917.928040	-3.793125	-10.263750	-4.843125
113.947998	-31.903000	994.605042	1.334375	-3.408125	-6.798750
134.382996	31.659000	938.729004	0.336875	-10.740625	3.320625
165.554001	3.416000	1028.703979	-7.498750	-1.128750	16.900625
130.783997	-21.716000	1065.487061	-16.813126	-16.152500	17.456249
156.221008	-23.851000	1001.497986	-7.385000	-5.880000	18.270000
83.875000	-33.306000	1055.360962	0.634375	5.044375	18.252501
78.507004	-21.045000	991.799011	2.524375	1.623125	10.745000
28.365000	-41.602001	992.104004	12.070625	-2.983750	5.775000
21.837999	-39.466999	1024.250977	8.741250	-1.728125	-1.990625
13.420000	-8.723001	1001.924988	2.738750	-1.006250	-2.410625
-4.026000	-18.056000	1020.225037	-3.163125	0.875000	-1.295000
-8.235000	-21.472000	1036.145996	-10.513125	-2.940000	0.013125
-8.357000	-30.134001	1031.327026	-8.194375	2.209375	-0.214375
-14.030000	-38.307999	1049.505005	-1.548750	-1.684375	-1.916250
-10.187000	-26.474001	1017.723999	2.533125	0.389375	-4.550000
-13.542000	-33.000999	1014.491028	1.518125	1.220625	-3.058125
-13.969000	-18.422001	1022.665039	3.390625	1.535625	-0.717500
-10.370000	-29.524000	1008.390991	-0.910000	1.369375	1.413125
-2.135000	-42.944000	1017.419006	0.380625	0.809375	-0.621250
1.525000	-25.254000	1012.173035	-0.883750	1.544375	-1.876875
3.843000	-27.328001	1023.945984	-3.530625	0.774375	-2.152500
-1.525000	-20.191000	1016.504028	1.168125	1.535625	-2.926875
3.721000	-22.326000	1018.578003	-0.332500	-0.017500	-3.255000
13.237000	-18.361000	1018.028992	-0.385000	1.273125	-4.869375
2.623000	-19.153999	1012.478027	0.122500	2.730000	-4.996250
25.132000	-17.629000	1019.554016	2.716875	2.576875	-4.672500
69.905998	-18.726999	1034.499023	-3.115000	3.902500	-4.466875
101.198997	-31.781000	1023.275024	2.476250	4.480000	-5.057500
180.132996	-10.187000	1043.770996	-0.161875	12.425000	-10.093125
172.630005	0.549000	995.885986	-15.190000	17.705626	-11.970000
211.731003	24.705000	981.184998	-30.388750	20.090000	-8.194375
215.391006	-39.040001	1046.271973	-39.436249	12.127500	6.737500
116.937004	-107.177002	1027.118042	-17.136875	10.976875	7.743750
45.628002	-78.263000	952.942017	11.550000	12.796875	-18.331249
74.603004	-71.308998	947.085999	8.019375	-19.893126	-28.253750
31.659000	-160.796005	1047.125977	-19.779375	-21.739374	-16.655624
-15.921000	-185.074005	933.971008	-13.785625	-29.767500	3.263750
-131.089005	-204.654999	972.096008	3.841250	-31.780001	20.628124
-198.311005	-125.598999	969.106995	26.967501	-47.333126	25.453751
-282.613007	-60.084999	981.612000	23.450001	-58.314377	26.166876
-322.690002	-63.867001	1120.386963	33.306873	-41.825001	4.738125
-285.907013	-36.417000	1159.854004	17.486876	-34.829376	-6.116250
-195.505005	-37.149002	1101.171997	-10.268125	-6.151250	-5.963125
-184.464005	-51.605999	1165.588013	2.323125	11.099375	3.819375
-174.643005	-55.632000	1159.854004	15.618750	21.936251	6.120625
-118.889000	-7.381000	1102.208984	5.735625	42.927502	17.005625
-137.494003	-24.644001	1061.644043	-3.657500	52.670624	22.785000
-119.376999	-77.225998	1122.888062	4.764375	41.698124	15.172500
-93.269005	-4.453000	1013.637024	0.008750	61.311249	12.862500
-121.267998	-13.786000	1103.612061	4.147500	53.703125	-0.109375
-78.750999	25.559000	965.325012	-7.249375	56.126877	-5.551875
-40.687000	38.796001	933.910034	-16.830626	3.189375	-8.916250
-18.910000	-4.514000	954.101013	-3.189375	35.455002	-23.091249
98.087997	-8.967000	985.577026	6.431250	-15.557500	-20.580000
107.848000	-54.656002	971.546997	27.803125	-24.268126	-11.270000
163.906998	2.867000	1003.816040	6.216875	-5.656875	-16.821875
129.076004	40.931000	912.255005	-3.583125	-7.888125	8.137500
111.630005	-59.109001	1020.103027	-39.541248	-9.283750	8.198750
48.434002	-101.503998	1020.591003	-22.001875	-3.749375	8.649375
13.847000	-107.665001	1033.096069	3.635625	-4.593750	-1.955625
-4.758000	-49.410000	995.215027	15.566250	-1.439375	-5.298125
-40.138000	-44.652000	1020.835022	17.128124	-8.041250	-3.902500
-48.678001	-15.677000	1022.604004	19.788124	-9.576875	-1.868125
-54.107002	-17.507000	1046.394043	23.646875	-8.872500	1.911875
-57.340000	15.189000	1023.763000	12.893125	-6.846875	0.450625
-65.453003	5.185000	1010.526001	8.015000	-4.996250	3.731875
-52.033001	8.845000	1034.437988	3.294375	-1.540000	2.559375
-56.303001	1.525000	1036.145996	1.071875	-2.843750	2.856875
-53.313999	13.237000	1017.174988	6.873125	-5.171250	2.139375
-60.329002	28.975000	1036.145996	4.173750	2.012500	4.134375
-57.827999	22.509001	1023.153015	4.239375	-0.096250	3.994375
-46.726002	19.459000	1027.728027	1.929375	0.752500	4.825625
-35.196999	19.642000	1019.309998	-1.421875	1.325625	3.272500
-58.743000	23.851000	1014.064026	-4.235000	2.511250	2.485000
-47.336002	23.241001	1021.384033	-4.388125	-0.249375	1.859375
-44.529999	32.025002	1019.187988	-0.805000	-0.065625	1.693125
-53.253002	25.925001	1005.218994	-0.783125	0.984375	1.557500
-52.094002	27.450001	1010.830994	-2.712500	1.194375	0.061250
-47.519001	7.503000	1010.648010	-7.511875	-1.382500	-4.252500
-38.857002	5.612000	1012.966003	-6.794375	2.878750	-6.116250
-20.191000	9.333000	1011.441040	-6.693750	-2.502500	-4.366250
9.394000	-3.538000	1016.077026	0.905625	3.491250	-1.487500
53.192001	10.736000	1041.331055	1.028125	-1.408750	0.411250
61.792999	1.281000	1013.637024	-4.847500	5.398750	-0.258125
63.135002	19.886000	1008.817993	-7.223125	5.149375	-1.671250
136.457001	-5.429000	1009.062012	-15.553125	7.371875	-2.423750
161.893997	-6.832000	1063.046997	-5.792500	5.814375	-0.070000
184.281006	-32.574001	1020.895996	1.771875	5.105625	4.773125
165.859009	-5.917000	984.906006	4.252500	10.832500	-1.785000
129.869003	35.441002	960.079041	0.052500	5.114375	-3.136875
111.325005	3.233000	975.268005	-10.237500	-2.331875	-2.738750
82.106003	-72.711998	993.567993	-17.224375	-10.193750	-0.301875
-34.342999	-52.521000	936.044983	-19.740000	-20.921249	6.833750
-57.035000	-87.230003	941.413025	6.396250	-48.527500	5.530000
-119.316002	-21.837999	988.200012	11.248125	-36.723751	5.761875
-208.376007	1.769000	973.682007	22.719376	-50.141876	16.782499
-312.502991	-13.054000	1112.213013	2.095625	-56.179375	10.386250
-419.740997	-44.591000	1225.245972	9.310000	-47.131874	9.025625
-398.024994	-27.145000	1215.912964	32.340000	-33.285000	-4.353125
-336.720001	11.102000	1175.592041	19.591249	8.890000	-5.346250
-207.278000	-23.668001	1109.712036	-6.536250	19.586876	-0.516250
-177.876007	5.490000	1062.071045	-8.785000	36.211876	8.382500
-108.397003	-22.021000	991.616028	-5.346250	41.107498	6.330625
-48.922001	-17.934000	1020.895996	9.603125	33.372501	4.764375
-26.230000	27.023001	1065.426025	27.615000	28.695625	1.815625
23.180000	76.982002	1087.630005	26.678749	28.875000	3.605000
27.877001	66.246002	1003.755005	17.583124	15.596875	9.047500
101.625999	83.752998	984.906006	-13.890625	16.799999	-0.888125
128.710007	49.410000	936.898987	-27.851250	13.435625	0.730625
178.119995	45.628002	968.070007	-10.097500	-7.166250	-6.405000
226.371002	54.473000	888.221008	-3.526250	15.881250	-5.683125
249.977997	14.274000	962.275024	8.023750	-19.586876	-8.102500
207.766006	42.761002	1059.386963	5.009375	3.701250	-13.794375
174.094009	98.514999	1053.348022	2.086875	-4.913125	-10.867500
122.915001	93.269005	1053.042969	-12.359375	-0.004375	-3.338125
82.472000	31.659000	1006.927002	-10.648750	4.891250	-0.109375
22.997000	48.373001	998.875000	-15.491875	3.206875	0.975625
1.037000	12.139000	999.668030	-15.518125	-1.701875	1.758750
-20.069000	10.553000	1008.757019	-1.684375	2.043125	-0.420000
-15.189000	20.618000	1021.811035	-2.012500	-1.120000	-1.561875
-44.834999	19.825001	1040.537964	-5.600000	1.531250	-1.640625
-34.221001	8.052000	1041.574951	-5.853750	3.403750	-3.797500
-24.521999	-1.464000	1017.236023	-1.872500	1.548750	-4.563125
-21.594000	-23.912001	1018.151001	-2.314375	-1.198750	-6.833750
-20.007999	-18.788000	1013.454041	-4.611250	2.909375	-6.908125
-13.847000	-10.675000	1021.200989	-3.924375	-2.966250	-3.473750
-22.936001	-20.252001	1024.739014	1.365000	0.131250	-2.095625
-19.520000	-9.577000	1013.270996	4.668125	-0.306250	-2.432500
-10.004000	-3.782000	1001.254028	5.346250	-1.124375	-1.505000
-19.886000	-8.723001	1027.545044	1.811250	-2.327500	-3.005625
-9.333000	3.294000	1017.053040	-3.355625	1.872500	-3.469375
-20.740000	-1.342000	1020.041992	-6.125000	-0.310625	-3.845625
-16.409000	-0.915000	1006.744019	-3.661875	0.245000	-4.676875
-14.640000	-10.797000	997.044983	4.068750	-0.892500	-2.576875
-23.607000	-9.272000	1008.695984	6.059375	-0.984375	-4.401250
-25.681000	-14.457000	1032.242065	-0.236250	-0.192500	-4.733750
7.686000	3.233000	1015.955017	-2.594375	-0.367500	-5.368125
46.116001	-6.283000	1047.004028	-2.056250	2.218125	-2.515625
45.079002	-4.392000	1044.990967	-6.387500	1.448125	-2.655625
78.263000	-10.187000	1038.525024	-9.318750	8.483125	0.017500
127.429001	-36.600002	1064.572021	-5.145000	9.288125	2.546250
239.181000	-51.423000	1060.180054	-4.493125	16.419374	6.733125
303.048004	-72.651001	1075.063965	-0.262500	23.638124	21.406876
265.838013	-32.695999	1030.838989	-3.994375	30.751875	23.244375
248.453003	16.896999	856.989014	-3.241875	10.889375	27.409374
137.188995	-34.770000	816.179993	4.865000	-1.386875	23.331875
4.087000	20.984001	914.817017	5.363750	-22.124374	1.198750
-86.681000	-19.642000	1011.319031	-20.545000	-60.200001	-16.248751
-232.776001	-45.383999	1145.946045	-29.378124	-72.642502	-53.331249
-165.065994	-49.837002	1097.695068	-40.337502	-51.073750	-75.998123
-215.635010	-72.406998	1096.718994	-26.101250	-50.540001	-50.544376
-220.393005	-124.135002	1055.727051	-4.322500	-50.023750	-20.527500
-228.932999	-159.637009	1075.125000	15.951250	-37.725624	-3.631250
-285.723999	-158.844009	1176.933960	12.989375	0.446250	7.437500
-218.867996	-152.865997	1047.492065	-7.595000	8.146250	-2.025625
-188.612000	-193.065002	1121.240967	11.331250	40.009377	-4.340000
-121.572998	-120.597000	1060.119019	6.055000	46.436249	-10.911250
-47.824001	-77.530998	970.205017	5.145000	69.894997	5.114375
-147.009995	-114.985001	1153.815063	0.958125	62.759377	10.430000
-11.346000	-88.511002	969.778015	8.505000	37.073750	3.998750
-34.465000	-12.749001	1014.064026	14.586250	51.056252	14.770000
-17.263000	-22.326000	1048.468018	-6.916875	21.052500	0.752500
65.941002	-28.731001	1014.307983	7.350000	19.670000	-8.338750
108.275002	-26.657000	978.562012	30.826250	-24.075624	-5.180000
228.322998	3.477000	1000.400024	12.543125	2.922500	-3.390625
172.264008	59.230999	963.556030	-2.393125	-28.476875	23.003750
212.645996	-5.795000	1019.919983	-21.581875	-6.212500	14.481250
152.134003	-17.385000	995.337036	-11.873750	-19.866875	16.034374
106.262001	-55.388000	1056.093018	0.118125	9.940000	7.616875
71.308998	-62.341999	1001.559021	1.671250	-5.534375	4.431875
38.917999	-18.422001	979.781982	16.275000	0.065625	3.990000
11.590000	4.575000	1028.155029	9.813125	-5.070625	5.311250
-15.921000	-12.871000	1027.178955	11.090625	-3.850000	6.820625
-24.339001	11.773000	1018.517029	5.578125	-3.902500	5.792500
-11.529000	1.220000	1033.096069	-1.080625	-2.703750	7.568750
-2.745000	-0.549000	1021.811035	0.494375	-1.093750	10.648750
-4.209000	-9.211000	1002.901001	3.670625	-2.537500	11.834375
-15.128000	-16.836000	1039.683960	1.981875	-1.693125	8.251250
-18.056000	-7.198000	1035.901978	0.853125	-3.250625	5.923750
-12.932000	3.050000	1025.227051	0.437500	2.240000	1.977500
-6.161000	-0.610000	1021.872009	-4.143125	-1.054375	-0.573125
4.880000	3.904000	1008.695984	-3.937500	-2.721250	-3.368750
21.472000	10.614000	996.130005	-1.592500	-0.980000	-2.992500
-2.745000	-2.928000	1026.447021	2.226875	2.423750	-1.697500
0.122000	20.191000	1019.309998	3.412500	-2.979375	-4.081875
7.564000	17.568001	1013.697998	1.404375	-3.657500	-0.879375
-1.220000	9.150001	1035.901978	1.859375	1.701875	0.551250
-4.087000	1.464000	1025.531982	-0.481250	2.113125	1.452500
-3.660000	-19.032000	1009.062012	-1.575000	1.404375	-1.990625
3.355000	8.601000	1012.843994	-3.285625	2.756250	-5.293750
20.191000	-1.281000	1009.916016	-4.519375	-0.188125	-4.182500
18.971001	-19.032000	1031.083008	-4.983125	2.419375	-3.438750
16.958000	-12.627000	1025.471069	-1.736875	2.983750	-2.813125
28.365000	-1.403000	1028.216064	0.091875	2.493750	-0.301875
74.359001	-12.749001	1023.885010	-7.901250	12.258750	0.266875
120.597000	-25.437000	1049.383057	-4.462500	10.574375	-2.454375
216.367004	-18.726999	1086.654053	-4.182500	16.966249	-8.203125
300.119995	-18.422001	1045.723022	3.176250	18.375000	-8.776250
276.085999	12.993000	936.228027	9.266250	18.598125	5.985000
265.838013	-10.431000	921.161011	-1.430625	13.308750	11.458125
198.555008	8.174000	925.614014	3.290000	-1.054375	11.685625
151.951004	5.795000	1006.072998	8.531250	-26.770624	6.129375
37.027000	-6.405000	1108.979980	20.142500	-40.748749	1.461250
-79.788002	36.355999	879.559021	8.820000	-46.624374	1.645000
-226.676010	11.895000	882.426025	-4.558750	-61.123123	1.456875
-228.079010	35.746002	995.947021	-10.793125	-66.158752	-8.365000
-246.745010	-4.331000	1167.479004	9.323125	-82.022499	10.333750
