AccX[mg]	AccY[mg]	AccZ[mg]	GyrX[dps]	GyrY[dps]	GyrZ[dps]	
61.366001	-64.476997	1012.478027	-0.161875	-2.467500	-1.785000
56.486000	-54.046001	1017.663025	-1.478750	6.370000	-0.708750
63.013000	-80.459000	1004.364990	-2.209375	8.260000	-1.474375
50.569000	-80.031998	1009.733032	-1.093750	4.239375	-2.664375
46.237999	-73.139000	1013.637024	-0.393750	-0.573125	-3.425625
53.008999	-65.574997	1008.330017	-0.144375	-2.231250	-3.360000
47.396999	-69.540001	1009.062012	-0.481250	-0.091875	-2.091250
55.570999	-76.982002	1006.195007	-0.713125	3.591875	-0.201250
54.900002	-73.383003	1008.817993	-0.188125	1.063125	-0.358750
49.776001	-66.551003	1006.500000	0.144375	-1.207500	-0.201250
48.678001	-70.028000	1009.367004	0.118125	-0.770000	-0.266875
52.764999	-78.750999	1005.768005	-0.074375	0.616875	-0.175000
55.021999	-79.910004	1013.027039	-0.411250	1.478750	-0.275625
46.177002	-68.197998	1006.195007	-0.538125	2.226875	-0.122500
46.970001	-73.626999	1011.319031	-0.503125	2.030000	-0.196875
50.935001	-80.946999	1008.817993	-0.271250	0.896875	-0.249375
41.785000	-63.928001	987.955994	-0.113750	-0.310625	-0.297500
51.728001	-74.054001	1002.535034	-0.516250	1.233750	-0.258125
48.312000	-73.444000	1020.530029	-0.367500	1.303750	-0.385000
47.580002	-79.117004	1019.309998	-0.170625	0.161875	-0.332500
55.937000	-76.189003	1015.772034	-0.056875	-0.813750	-0.262500
50.630001	-73.809998	989.237000	0.170625	-0.218750	-0.354375
47.091999	-74.419998	1008.268982	-0.196875	1.575000	-0.323750
50.691002	-73.931999	1007.109985	-0.376250	1.413125	-0.140000
52.582001	-75.152000	1019.919983	0.000000	0.332500	-0.144375
45.323002	-78.933998	1012.539001	-0.087500	0.315000	-0.266875
53.862999	-73.626999	1010.465027	-0.135625	1.045625	-0.201250
45.750000	-72.346001	1030.107056	-0.424375	0.490000	-0.227500
49.471001	-66.184998	1008.757019	-0.210000	0.026250	-0.196875
52.277000	-72.895004	1006.377991	-0.371875	0.328125	-0.218750
59.109001	-77.714005	1018.455994	-0.223125	0.826875	-0.573125
49.593002	-73.871002	1008.879028	-0.096250	0.595000	-0.393750
50.507999	-72.834000	1010.403992	-0.096250	-0.756875	-0.148750
52.582001	-74.786003	1019.127014	0.008750	-0.551250	-0.262500
50.874001	-91.865997	1050.786011	-0.118125	0.660625	-0.135625
55.570999	-80.641998	1009.122986	-0.376250	0.940625	-0.245000
57.218002	-73.504997	988.200012	-0.258125	0.525000	-0.389375
52.459999	-71.736000	1001.497986	-0.332500	0.153125	-0.284375
51.728001	-71.613998	1009.489014	-0.249375	0.240625	-0.262500
48.190002	-77.409004	1008.085999	-0.280000	0.564375	-0.284375
55.937000	-81.129997	1010.465027	-0.236250	0.087500	-0.284375
48.494999	-69.784004	1012.112000	-0.166250	1.045625	-0.275625
50.751999	-74.054001	1009.306030	-0.385000	2.139375	-0.363125
52.826000	-76.615997	1009.794006	-0.481250	2.362500	-0.231875
49.776001	-73.504997	1009.062012	-0.371875	1.277500	-0.179375
52.399002	-74.542000	1010.281982	-0.179375	-0.529375	-0.280000
48.556000	-71.918999	1008.635010	-0.433125	1.155000	-0.214375
44.652000	-72.346001	1011.197021	-0.669375	1.872500	-0.179375
51.423000	-74.542000	1010.648010	-0.389375	0.315000	-0.332500
54.046001	-72.956001	1010.648010	-0.161875	-0.813750	-0.249375
56.181000	-73.566002	1014.613037	-0.048125	-0.183750	-0.284375
50.813000	-75.762001	1009.671997	-0.227500	1.303750	-0.301875
45.506001	-71.918999	1008.330017	-0.266875	1.325625	-0.266875
50.447002	-71.370003	1010.281982	-0.253750	0.577500	-0.288750
56.424999	-77.653000	1010.770020	-0.135625	-0.052500	-0.341250
50.751999	-72.956001	1010.038025	-0.262500	1.303750	-0.249375
50.630001	-76.860001	1014.125000	-0.306250	1.045625	-0.271250
48.068001	-72.895004	1010.770020	-0.258125	0.188125	-0.297500
48.678001	-75.639999	1013.880981	-0.157500	0.603750	-0.284375
57.035000	-81.679001	1004.609009	-0.284375	1.251250	-0.240625
53.192001	-76.311005	1016.992004	-0.231875	0.752500	-0.262500
51.605999	-71.796997	1009.489014	-0.070000	0.122500	-0.179375
46.726002	-75.884003	1006.500000	-0.065625	0.560000	-0.284375
50.325001	-75.396004	1009.062012	-0.109375	0.962500	-0.323750
47.702000	-72.956001	1015.833008	-0.214375	0.949375	-0.205625
49.897999	-77.104004	1011.624023	-0.135625	-0.380625	-0.306250
51.850002	-71.308998	1012.356018	-0.113750	0.205625	-0.402500
50.996002	-70.760002	1013.942017	-0.446250	0.953750	-0.315000
50.264000	-77.165001	1010.038025	-0.459375	1.185625	-0.271250
50.386002	-79.543999	1010.160034	-0.288750	0.385000	-0.201250
48.190002	-74.724998	1012.966003	-0.166250	-0.280000	-0.231875
54.595001	-72.651001	1008.940002	-0.122500	-0.188125	-0.280000
51.728001	-78.750999	1012.783020	-0.380625	0.385000	-0.258125
48.190002	-69.479004	1012.966003	-0.297500	0.866250	-0.271250
52.277000	-73.931999	1012.721985	-0.586250	1.929375	-0.319375
49.653999	-73.566002	1009.549988	-0.498750	1.618750	-0.336875
46.848000	-70.698997	1012.783020	-0.288750	0.218750	-0.323750
55.144001	-83.387001	1003.999023	0.883750	-2.240000	-0.323750
45.932999	-78.385002	1015.161987	-0.262500	0.472500	-0.231875
36.417000	-80.031998	1008.268982	-0.131250	0.306250	-0.411250
50.507999	-79.422005	1012.783020	-0.966875	-0.420000	-0.503125
51.484001	-85.827003	979.903992	-0.030625	1.290625	0.223125
44.103001	-78.018997	1005.768005	-3.045000	3.850000	0.735000
15.677000	-100.162003	1002.473999	1.032500	42.573124	35.139999
-33.428001	-98.820000	975.939026	-2.537500	15.325625	39.510624
25.742001	-74.481003	1026.812988	-2.870000	-27.041876	35.301876
48.250999	-77.835999	1015.223022	-0.476875	-18.659374	33.656876
41.174999	-79.178001	1011.257996	0.778750	24.412500	37.572498
-7.564000	-87.047005	1013.880981	-3.202500	27.203751	34.978127
-29.097000	-82.289001	1008.025024	-1.640625	3.710000	27.448750
-26.169001	-53.313999	945.012024	-0.818125	-19.464375	18.300625
10.309000	-92.659004	1023.092041	-0.336875	-17.071251	10.495625
-2.745000	-76.189003	1004.669983	-1.137500	1.701875	4.738125
-44.103001	-75.762001	1026.691040	-0.791875	8.413125	-2.340625
-15.250000	-101.565002	1049.016968	1.168125	-8.758750	-4.851875
1.464000	-103.211998	1042.795044	0.398125	-6.553750	-3.548125
-0.610000	-86.498001	1021.994019	-0.835625	6.068125	-1.833125
-25.071001	-71.736000	1010.830994	-0.253750	9.493750	-1.776250
-15.921000	-85.643997	1011.624023	-0.175000	-3.031875	-2.384375
-8.113000	-82.532997	1017.053040	-0.367500	-4.348750	-1.386875
-11.712000	-81.739998	1019.309998	0.030625	5.035625	-0.468125
-12.932000	-78.385002	1012.416992	-0.030625	2.257500	-0.603750
-13.481000	-79.910004	1010.587036	-0.166250	0.643125	-0.105000
-14.640000	-77.042999	1009.306030	-0.245000	2.795625	-0.371875
-11.407001	-79.543999	1008.452026	-0.385000	-0.984375	-0.358750
-6.893000	-76.555000	1010.770020	-0.411250	-0.091875	-0.218750
-15.067000	-77.470001	1008.940002	-0.131250	2.765000	-0.157500
-16.348000	-85.460999	1011.807007	-0.376250	0.140000	-0.065625
-7.625000	-85.155998	1013.575989	-0.336875	-1.483125	-0.153125
-4.331000	-78.995003	1011.867981	-0.170625	2.607500	0.568750
-16.409000	-69.357002	1012.234009	-0.218750	2.695000	1.666875
-2.135000	-92.903000	1038.036987	-0.717500	-3.206875	7.332500
-12.871000	-78.933998	1020.530029	-0.525000	6.895000	7.393750
-14.030000	-69.600998	1010.708984	-0.126875	3.946250	5.250000
-17.202000	-83.204002	1014.247009	-0.109375	-4.563125	3.053750
-8.845000	-86.986000	1011.624023	-0.056875	1.194375	0.455000
-6.405000	-89.059998	991.372009	-0.446250	4.493125	-0.354375
21.594000	-122.244003	1016.565002	-0.078750	-12.473125	10.456250
-71.370003	-76.127998	1019.127014	1.159375	15.920625	18.501875
-34.831001	-69.723000	1037.915039	-6.225625	21.503124	-1.277500
-36.478001	117.913002	1052.615967	13.055000	19.180000	1.745625
-29.463001	-41.358002	952.027039	4.029375	-10.106250	-3.465000
-63.562000	-65.819000	1007.903015	1.837500	-17.780001	-13.177500
-42.761002	-183.671005	1039.073975	0.288750	-12.035625	-1.400000
-21.410999	-65.086998	1043.039062	0.752500	-22.373751	13.212500
101.503998	-200.141006	1106.174072	6.409375	-13.444375	11.554375
-121.939003	-84.362999	1020.835022	26.582500	-66.211250	13.702500
-99.979004	-88.450005	1147.531982	10.823750	-13.693750	8.868125
146.156006	-77.104004	943.548035	4.830000	-21.148750	-7.161875
-39.771999	-68.502998	957.090027	3.850000	-1.780625	-12.735625
-88.876999	-71.431000	319.274017	35.070000	5.748750	8.203125
791.291992	150.487000	1106.052002	76.033127	-16.616249	23.603125
96.746002	-51.850002	868.578979	-18.475624	25.760000	10.990000
61.487999	-112.849998	1088.178955	-29.688749	9.734375	-15.181250
177.936996	83.447998	994.299988	-11.563125	-9.121875	0.345625
9.821000	-34.342999	1073.355957	-28.695625	6.829375	4.239375
67.344002	-65.148003	962.335999	-40.022499	16.148125	3.478125
123.403000	-34.038002	1075.490967	-32.112499	9.100000	8.443750
36.173000	-126.514000	1081.224976	-2.113125	-8.846250	8.281875
57.218002	24.827000	854.731995	9.156875	-20.527500	13.116250
91.682999	-72.223999	1049.383057	4.624375	-1.754375	21.813749
181.414001	-74.054001	1094.828003	-9.633750	0.201250	25.375000
-26.535000	-123.342003	1028.093994	-17.832500	16.152500	12.950000
45.079002	-70.943001	1090.557983	-3.535000	0.354375	23.257500
1.403000	-64.598999	1013.820007	-2.642500	2.380000	22.452499
4.209000	-36.112000	1042.855957	12.722500	14.175000	32.593750
-4.209000	-67.222000	1027.605957	13.750625	24.381874	31.937500
-53.680000	-108.519005	1044.930054	10.535000	-8.754375	15.316875
2.440000	-15.189000	977.890991	15.855000	31.788750	17.023125
19.642000	4.941000	1055.910034	-8.439375	94.307503	20.650000
-80.459000	6.588000	1033.279053	-28.673750	70.258125	28.883751
-70.820999	22.082001	981.856018	-9.248750	49.730625	64.723747
-76.006004	-84.667999	929.762024	14.879375	56.428749	95.445000
-114.252998	-81.434998	958.798035	6.514375	36.575001	56.791874
-90.341003	-13.359000	911.462036	-15.067500	17.543751	20.142500
-229.725998	-20.679001	1056.947021	9.655625	16.056250	25.270000
-281.697998	-122.549004	915.976013	-6.877500	36.513748	7.490000
-346.480011	-120.536003	852.536011	3.823750	44.913750	-3.543750
-412.542999	-79.422005	948.854980	5.477500	36.150623	7.008750
-435.113007	-55.570999	900.848022	-11.611250	11.239375	7.625625
-404.674011	-78.263000	1032.425049	-9.935625	-25.843124	1.776250
-283.040009	-17.934000	929.579041	-24.535000	-29.150625	-4.694375
-324.703003	-10.797000	861.869019	-27.715626	-52.211250	-3.023125
-310.734009	-117.730003	1008.268982	-9.598750	-71.338753	-0.498750
-287.005005	-132.369995	956.968018	6.636875	-59.578751	2.323125
-356.300995	-162.869995	1068.415039	8.198750	-14.275625	-19.783751
-279.989990	-147.986008	1056.214966	-1.579375	-19.998125	-30.480625
-203.069000	-23.485001	917.317993	31.784374	-77.735001	-34.873123
-48.556000	7.808000	1102.391968	21.735001	-70.437500	-42.809376
-0.366000	-48.494999	1086.166016	4.698750	-43.745625	-36.246876
30.743999	-2.196000	1023.580017	20.321875	-23.918125	-30.366875
88.328003	52.764999	1062.192993	39.615623	3.132500	-31.084375
52.459999	54.046001	877.911987	22.133125	25.466875	-25.493126
24.156000	50.751999	998.447998	15.640625	14.013125	-29.163750
56.852001	21.106001	962.031006	17.915625	-15.566250	-35.949375
84.545998	77.042999	1039.317993	24.311874	-1.023750	-46.340000
37.514999	209.413010	825.268982	64.561874	-41.593124	-17.276875
70.943001	102.846001	1019.249023	-16.467501	32.103748	-32.090626
96.989998	118.584000	1095.560059	-27.531876	17.823750	-54.420624
17.934000	-150.365005	864.492004	-73.023125	-13.006875	-39.453751
-53.985001	112.118004	1044.625000	-30.550625	-27.724375	-41.829376
76.555000	99.857002	977.098022	25.628750	-1.312500	-44.480625
51.300999	92.292999	1051.395996	12.075000	18.208750	-43.421875
-25.864000	126.209000	989.298035	-22.124374	56.148750	-14.122500
-93.147003	103.761002	958.798035	-52.880627	-4.331250	70.533752
204.777008	-101.503998	947.025024	-52.753750	-34.623749	59.832500
12.810000	-176.716995	1002.901001	-18.703125	30.165625	4.480000
120.169998	-129.930008	828.257996	0.026250	0.210000	-25.624374
-22.326000	3.477000	972.523010	-8.719375	-34.304375	-41.431252
108.153000	-93.208000	944.829041	-15.522500	-33.324375	-30.463125
114.497002	-40.320999	955.015991	-1.203125	4.554375	-6.243125
58.621002	-83.142998	1057.191040	4.991875	-8.470000	-4.326875
62.890999	-39.894001	995.398010	6.768125	-0.402500	5.035625
-50.386002	-16.042999	913.048035	18.204374	-2.410625	-6.619375
140.361008	-73.016998	1124.718018	37.743126	-22.334375	13.378750
-31.781000	-64.965004	978.135010	4.711875	4.396875	11.930625
168.115997	-96.624001	1170.895020	25.865000	-4.081875	-11.725000
101.748001	-69.295998	1066.097046	12.114375	23.568125	-13.825000
39.040001	-32.390999	708.210022	9.191875	60.497501	-6.855625
-96.684998	-77.348000	944.463013	-3.976875	30.848125	-23.979376
1.037000	-11.895000	1033.339966	-10.036250	4.300625	-20.063749
-12.688000	-41.480000	1061.156006	-14.332500	40.617500	-8.579375
-64.965004	-73.444000	959.103027	-20.825001	76.864372	5.792500
-116.388000	36.234001	857.598999	-18.493126	34.282501	0.599375
-58.926003	-76.127998	991.616028	-17.539375	-8.050000	4.554375
-170.311996	-30.134001	912.926025	0.122500	-8.233750	-2.502500
-156.404007	-34.282001	936.044983	12.451250	-15.631875	-12.149375
-98.697998	-71.675003	978.440002	9.196250	-36.811249	1.172500
-108.397003	-52.764999	1028.520996	23.200624	-58.099998	2.310000
-84.607002	-11.895000	976.182983	23.865625	-44.633751	12.530000
-78.750999	-87.168999	997.411011	13.706875	-45.395000	14.205625
-43.493000	-31.903000	1074.820068	8.736875	-32.235001	-3.250625
32.939999	3.965000	1060.667969	2.996875	-13.956250	-1.776250
26.169001	-25.254000	1049.626953	-12.796875	26.661249	2.283750
44.957001	1.525000	1074.149048	10.657500	-4.589375	-6.877500
181.902008	12.200000	1074.332031	12.433750	-54.578125	-0.822500
160.490997	-4.880000	1012.966003	4.943750	-12.639375	3.915625
82.959999	67.527000	942.999023	12.801250	13.177500	2.489375
148.779007	44.225002	1006.012024	4.891250	-21.511875	9.415000
106.932999	-10.065001	979.965027	0.052500	21.052500	6.951875
81.191002	45.567001	1016.687012	5.110000	30.038750	-6.348125
97.478004	60.512001	1083.542969	6.356875	-5.250000	-7.332500
71.796997	20.679001	1064.816040	-8.076250	-10.005625	-1.614375
28.792000	7.259000	972.462036	-19.744375	10.902500	-5.140625
87.351997	22.448000	1050.053955	7.853125	-26.687500	-8.732500
192.882004	44.469002	1031.265991	3.902500	-2.410625	-5.180000
107.299004	-23.302000	1030.167969	-0.201250	26.105625	3.714375
52.521000	13.481000	986.796997	4.847500	21.070000	-1.299375
22.691999	53.618999	992.653015	2.786875	16.493750	-3.150000
4.148000	16.531000	978.074036	-4.532500	17.014376	3.447500
-4.941000	-3.172000	999.484985	-4.112500	1.408750	1.435000
-9.272000	-9.211000	934.764038	-5.740000	-4.235000	3.395000
-18.117001	-88.328003	1139.419067	3.228750	3.373125	-5.096875
39.466999	4.331000	1031.875977	5.280625	-12.092500	-1.124375
22.082001	10.553000	1058.838013	0.315000	5.525625	2.520000
19.153999	34.465000	941.413025	0.109375	8.465625	5.390000
20.374001	38.979000	994.971008	5.127500	-7.717500	3.876250
78.690002	8.906000	1036.084961	-2.345000	7.472500	9.231250
28.182001	10.736000	961.421021	-3.578750	8.474375	7.875000
-17.080000	25.620001	998.143005	-1.675625	6.466250	4.099375
-16.469999	23.424000	1011.624023	-1.286250	8.946875	0.717500
-55.205002	33.244999	997.106018	-0.896875	3.198125	-5.411875
20.984001	20.069000	1081.103027	0.420000	26.280624	-13.492500
-67.404999	17.934000	999.302002	-1.553125	14.538125	-5.000625
-65.148003	39.955002	974.353027	2.034375	8.470000	-6.225625
-21.472000	66.612000	1017.601990	4.226250	-4.038125	1.658125
-64.111000	40.809002	957.760986	2.625000	-0.800625	11.606875
-58.743000	32.269001	978.989014	-4.165000	9.533125	11.130000
-52.399002	23.241001	991.981995	4.379375	-7.091875	6.256250
-46.299000	45.567001	1022.848022	6.715625	-20.763750	3.622500
-26.169001	51.545002	1019.919983	-2.861250	-20.195000	1.198750
-16.165001	39.345001	1053.348022	-6.461875	-10.329375	2.524375
6.588000	26.291000	997.960022	-3.552500	-14.210000	-4.865000
39.528000	17.141001	1032.425049	-2.747500	-8.426250	-2.012500
18.910000	8.357000	958.249023	-2.340625	3.823750	-3.141250
41.418999	25.254000	983.015015	5.740000	-4.453750	-7.630000
71.858002	-4.514000	1046.760010	3.705625	-14.048125	-1.894375
43.310001	-1.647000	995.276001	-0.503125	-6.133750	-1.990625
48.007000	2.379000	1041.270020	-0.503125	-3.653125	-2.642500
40.199001	5.917000	1036.390015	3.303125	-3.106250	-0.586250
26.718000	14.335000	989.541992	4.335625	1.758750	-0.971250
42.272999	10.553000	1029.863037	1.321250	10.241875	2.034375
43.066002	14.335000	1024.250977	3.521875	2.480625	-0.402500
65.696999	32.390999	1044.869019	4.628750	-3.618125	-2.870000
30.866001	38.247002	1018.639038	1.920625	8.207500	-0.498750
28.182001	36.844002	994.483032	2.139375	6.667500	-0.210000
33.733002	44.713001	1018.882996	1.728125	-2.366875	-0.21000
028.670000	39.650002	1008.268982	0.148750	0.026250	-0.415625
29.889999	38.430000	1004.059998	0.201250	0.188125	-0.118125
15.860001	37.453999	989.664001	0.166250	2.568125	1.330000
26.352001	38.552002	997.898987	1.185625	1.925000	0.643125
25.498001	52.459999	1029.313965	-1.255625	0.245000	-0.153125
18.605000	44.713001	1035.474976	-2.896250	1.491875	-0.892500
14.884000	34.709000	1025.348999	-4.777500	0.945000	-0.857500
3.965000	50.142002	1004.914001	1.977500	-0.883750	-3.727500
30.378000	51.484001	1013.148987	1.435000	-1.697500	-1.649375
29.158001	33.916000	1011.380005	-4.055625	2.975000	0.385000
18.239000	39.711002	992.226013	-0.328125	-1.610000	-3.539375
40.809002	53.802002	1021.750000	0.100625	-4.121250	-3.758125
40.992001	31.049000	1016.687012	-3.513125	-1.535625	-0.538125
57.827999	40.625999	1033.156982	1.583750	-5.893125	-0.441875
37.453999	33.855000	1031.265991	-0.065625	5.158125	3.290000
28.487000	34.526001	1027.728027	-0.647500	2.108750	3.268125
33.855000	31.354000	1035.474976	-1.614375	2.231250	2.769375
35.501999	20.313000	1036.634033	-3.972500	7.000000	1.251250
25.802999	17.080000	1035.170044	-5.131875	3.915625	-0.476875
17.629000	15.250000	1024.129028	-2.366875	4.554375	-5.573750
49.776001	60.268002	1035.536011	1.666875	2.415000	-1.194375
43.249001	48.250999	1035.536011	8.137500	5.328750	5.088125
13.298000	34.526001	1015.650024	5.626250	16.795626	5.096875
1.952000	31.537001	992.470032	1.478750	7.148750	6.475000
-0.244000	41.602001	1009.671997	-0.284375	7.004375	7.183750
8.479000	27.694000	1024.677979	1.286250	8.146250	5.530000
-0.915000	33.244999	996.496033	2.043125	9.170000	4.843125
-15.250000	47.336002	1040.294067	-2.467500	22.312500	1.391250
-27.999001	32.085999	979.538025	-0.866250	14.818125	1.413125
-10.126000	8.113000	946.963989	0.883750	-0.455000	4.261250
-32.635002	-8.906000	937.387024	4.484375	-2.458750	1.575000
-19.153999	17.080000	960.322998	9.467500	-7.551250	-2.047500
-13.298000	17.873001	1040.294067	6.050625	-5.591250	3.071250
-16.469999	11.529000	991.859985	3.333750	-13.006875	7.140000
44.285999	-28.609001	1045.113037	0.853125	-18.427500	14.796250
-0.488000	-17.934000	957.395020	14.700000	-5.906250	13.593125
30.866001	-30.683001	1000.765991	18.961250	-10.482500	19.600000
51.545002	-29.768000	986.736023	15.435000	-4.646250	21.196875
38.674000	-8.723001	976.915039	5.538750	-6.308750	26.372499
67.344002	-79.605003	1156.499023	-3.714375	7.341250	35.463749
-2.989000	-65.879997	1045.784058	5.884375	13.654375	25.755625
20.862000	70.333000	1212.253052	11.186875	1.570625	19.236876
-7.015000	104.859001	1114.592041	-10.049375	3.508750	20.811874
58.499001	150.182007	1185.901001	-19.844999	10.460625	38.845627
67.954002	143.350006	1129.354004	5.801250	24.806250	51.550625
62.769001	82.228004	1184.925049	-7.371875	35.630001	48.374374
111.813004	72.895004	1099.586060	-4.602500	28.350000	43.058750
34.160000	69.905998	1220.244019	2.384375	38.775623	37.471874
26.657000	152.317001	1094.706055	-0.354375	29.841875	34.632500
59.048000	114.375000	1075.063965	-12.446875	17.049376	39.388126
-32.025002	145.302002	1004.975037	-6.339375	19.604376	33.845001
5.795000	148.535004	1046.027954	3.653125	29.820000	14.612500
-90.036003	214.292999	1026.020020	6.444375	51.384377	14.135625
-125.050003	183.000000	990.395996	4.742500	56.367500	18.554375
-197.945007	232.044006	1106.479004	3.858750	63.739376	15.045625
-162.076996	197.578995	1089.338013	-0.494375	53.567501	9.073750
-299.510010	271.694000	989.725037	-9.016875	48.965000	5.525625
-245.037003	178.608002	1006.622009	-15.233750	53.243752	-8.474375
-286.273010	212.219009	943.669983	-13.291250	53.838749	-12.105625
-353.312012	104.554001	869.432983	-9.861250	51.454376	-22.124374
-269.558990	129.746994	924.333008	3.276875	22.885626	-39.300625
-328.485016	93.940002	818.681030	5.757500	45.171875	-28.122499
-316.589996	38.368999	814.960022	8.697500	46.007500	-31.780001
-300.851990	85.034004	781.531982	10.185000	18.821251	-36.063126
-334.036011	0.549000	783.362000	7.756875	24.797501	-30.493750
-355.446991	32.390999	660.934998	11.256875	10.250625	-28.310625
-386.739990	-20.679001	676.002014	20.024376	14.004375	-33.477501
-470.614990	29.219000	682.406982	29.658125	-5.061875	-43.273125
-374.235016	-57.767002	720.715027	24.412500	-10.167500	-25.217501
-441.822998	-77.592003	768.600037	24.495625	-17.491249	-25.335625
-354.287994	-93.940002	748.713989	21.236250	-34.566875	-32.676876
-391.803009	-53.131001	767.562988	20.295626	-46.838749	-36.203125
-278.098999	-114.680000	843.996033	36.014999	-43.338749	-37.633751
-268.033997	-92.659004	862.845032	24.259375	-43.259998	-26.092501
-253.210999	-207.400009	872.299988	8.365000	-33.766251	-15.894375
-177.388000	-100.650002	922.991028	5.845000	-47.591251	-22.653749
-230.397003	-228.994003	943.487000	-7.621250	-34.439999	-8.754375
-225.639008	-218.746002	899.505981	-6.995625	-42.586250	-10.924375
-181.779999	-185.684006	980.575012	-0.529375	-48.514374	-23.607500
-118.218002	-241.011002	971.546997	-14.135625	-51.926876	-10.797500
-93.635002	-193.736008	1050.786011	-6.256250	-46.379375	-10.171875
-45.993999	-254.858002	1022.786987	9.703750	-31.268126	-5.306875
-120.109001	-178.363998	1058.655029	-2.266250	-39.178123	8.535625
-39.345001	-182.024002	1143.078979	12.713750	-46.116875	0.253750
-84.790001	-115.412003	1197.063965	14.205625	-34.549374	19.057501
87.718002	-94.245003	1080.737061	25.318125	-27.107500	19.140625
29.341000	-91.195000	1076.527954	0.428750	-21.748125	48.378750
-45.567001	-57.401001	1106.906006	4.703125	-33.061874	40.740002
116.937004	-39.101002	1137.284058	4.090625	-33.210625	46.983124
102.968002	-62.281002	1197.186035	7.971250	-17.517500	48.413750
27.084000	-9.455000	1246.656982	18.261250	-9.743125	34.978127
138.408997	23.424000	1245.742065	-2.948750	-16.143749	34.356876
112.667000	53.192001	1286.062988	-1.763125	2.913750	31.246250
84.424004	55.632000	1101.416016	-14.612500	3.128125	34.129375
38.186001	45.079002	1222.927979	-12.197500	21.748125	35.336876
28.975000	42.577999	1018.944031	-10.622500	35.035000	31.482500
49.471001	65.086998	1147.714966	-1.592500	14.848750	18.353125
34.403999	74.603004	1142.774048	0.223125	24.058125	27.094376
15.128000	86.498001	1070.244995	-4.003125	32.619999	22.260000
5.307000	83.570000	1163.148071	1.570625	32.462502	24.180626
8.479000	127.124001	1091.594971	2.121875	33.271873	24.364374
-37.698002	143.106003	1084.885010	-1.535625	38.683750	19.258751
-121.207001	150.242996	1093.791016	-6.816250	46.921875	25.160625
-137.615997	152.622009	1077.138062	-14.183750	54.954376	19.814375
-213.500000	142.313004	990.335022	-16.384375	43.601250	12.057500
-174.033005	147.193008	1065.670044	-3.823750	46.532501	-2.835000
-202.520004	181.475006	952.088013	-10.320625	59.193748	4.217500
-282.674011	122.305000	945.439026	-10.001250	47.000626	-6.531875
-275.049011	151.402008	908.960999	-2.944375	45.473751	-13.877500
-350.384003	109.983002	931.043030	-3.653125	46.081875	-19.123125
-280.782990	93.940002	946.720032	5.613125	42.174999	-26.289375
-386.313019	69.967003	829.661011	11.821250	49.100624	-23.498125
-274.988007	10.553000	761.218994	10.434375	33.285000	-35.809376
-394.121002	-37.698002	713.090027	14.822500	32.449375	-35.218750
-322.994995	-35.868000	729.682007	20.181875	25.431875	-40.022499
-374.174011	-45.323002	630.679016	15.811250	13.304375	-36.365002
-321.653015	-86.803001	746.578979	19.048750	12.171250	-32.510624
-370.636017	-82.411003	681.858032	28.879375	-7.735000	-38.434376
-274.438995	-129.930008	690.093018	31.745001	-13.247500	-36.211876
-403.820007	-73.871002	797.514038	23.476250	-26.267500	-33.595627
-301.644989	-110.410004	742.919006	19.315624	-39.948124	-29.736876
-386.191010	-122.000000	752.007996	3.163125	-54.180000	-27.317499
-201.421997	-286.273010	905.362000	5.079375	-53.270000	-27.754999
-354.287994	-191.173996	870.226013	15.172500	-57.343124	-38.648750
-160.979004	-189.222000	917.562012	16.764999	-45.066875	-40.293751
-241.316010	-267.545990	1001.070984	1.023750	-46.335625	-35.070000
-188.307007	-178.363998	935.374023	2.905000	-56.393749	-26.744375
-167.445007	-248.453003	991.981995	2.275000	-47.661251	-20.881874
-185.806000	-201.666000	1108.552979	4.528125	-41.960625	-7.153125
-88.145004	-219.112000	1051.822998	0.840000	-56.818127	-4.112500
-53.131001	-193.736008	1053.836060	17.784374	-35.354374	4.593750
7.015000	-216.244995	1071.891968	12.446875	-35.170624	14.695625
-12.200000	-121.389999	1069.086060	23.778126	-27.903749	25.803749
-73.078003	-115.229004	1023.458008	31.950624	-21.853125	22.758751
77.348000	-78.140999	1059.509033	23.170000	-33.429375	27.588751
22.387001	-5.734000	1144.542969	28.660625	-25.847500	23.585625
19.153999	7.930000	1025.104980	15.360625	-33.061874	25.414375
137.311005	15.189000	1132.404053	10.797500	-46.431873	24.556875
106.384003	30.256001	1205.115967	9.808750	-19.411875	29.544374
117.120003	-0.976000	1078.114014	-5.324375	-17.040625	40.595627
85.583000	63.013000	1181.447998	6.457500	11.493125	36.631874
142.374008	45.872002	1125.510986	-13.711250	-9.900625	33.665627
146.460999	54.716999	1266.359985	-2.935625	5.534375	35.354374
96.624001	7.564000	1154.973999	-3.425625	41.251877	41.483749
114.619003	17.690001	1146.617065	-3.154375	23.651251	31.163124
101.382004	15.982000	1107.211060	0.971250	24.224375	38.639999
111.203003	64.781998	991.067017	-2.397500	27.107500	36.054375
42.517002	118.035004	1073.051025	1.071875	21.223125	27.125000
85.155998	129.686005	1086.531982	-1.111250	27.881874	36.229374
1.098000	193.675003	1118.739990	13.881875	37.773750	30.725624
68.747002	195.688004	1153.815063	5.088125	40.263126	34.825001
-86.863998	229.482010	1083.055054	-9.791250	50.443748	38.644375
-84.790001	220.637009	1110.200073	-19.276251	47.171249	23.891874
-63.744999	269.803009	1061.765991	-15.194375	48.580002	24.106251
-236.313995	266.204010	1002.108032	-12.880000	71.701874	28.459375
-163.358002	238.326996	1061.277954	-8.045625	61.201874	12.735625
-236.863007	259.433014	969.046021	-8.474375	57.461250	12.385625
-265.166992	173.544998	972.523010	-2.633750	60.418751	-8.058750
-185.928009	187.880005	975.450989	-4.221875	53.611252	-13.654375
-246.867004	117.425003	913.658020	-6.728750	67.926247	-16.629375
-394.731018	104.859001	764.635010	8.351875	56.367500	-27.601875
-300.851990	65.086998	830.027039	13.195000	37.572498	-40.468750
-442.006012	55.205002	735.171997	13.072500	23.673124	-41.055000
-450.729004	71.003998	703.330017	32.812500	25.458124	-49.743752
-290.542999	24.278000	751.153992	31.451876	10.193750	-51.244373
-325.252014	-30.073000	660.263977	21.573126	-4.961250	-30.178749
-321.042999	-0.366000	709.247009	22.242500	6.540625	-34.895000
-374.479004	-10.187000	627.202026	24.543751	-5.044375	-37.638126
-380.884003	-37.514999	661.484009	33.022499	-13.199375	-32.746876
-345.321014	-28.975000	632.325989	19.188749	-33.206249	-37.611874
-329.888000	-68.381004	653.371033	3.176250	-57.540001	-39.860626
-343.186005	-114.436005	786.716980	4.515000	-53.274376	-34.037498
-285.114014	-194.346008	841.983032	4.213125	-71.229378	-45.211250
-185.867004	-184.403000	918.171997	7.840000	-76.286873	-42.091873
-153.964005	-232.044006	1026.995972	9.983750	-54.748749	-43.636250
-245.951996	-187.391998	971.059021	-2.358125	-66.832497	-40.403126
-61.732002	-225.639008	1153.388062	-14.205625	-73.399376	-24.845625
-205.570007	-245.341995	1089.338013	-8.163750	-52.508751	-16.616249
-56.730000	-261.506989	1240.312988	-23.703751	-62.943127	-6.273750
26.291000	-287.248993	1042.916992	-5.166875	-43.833126	-3.018750
-46.665001	-228.628006	1051.945068	0.503125	-25.296249	-6.803125
44.652000	-251.014999	1125.693970	7.052500	-34.339375	-7.205625
-8.601000	-153.781006	968.070007	7.109375	-46.501877	6.580000
-50.202999	-85.827003	1080.493042	16.485001	-43.408749	2.607500
158.294998	-127.917000	1090.924072	15.413125	-40.525623	13.938750
97.599998	-92.659004	1008.940002	8.741250	-39.917500	23.961876
125.781998	-68.502998	1026.141968	16.848125	-23.078125	19.376875
238.936996	-80.581001	1079.699951	2.143750	-23.231251	20.081249
221.430008	-14.213000	1023.275024	-1.023750	-16.716875	16.966249
266.204010	3.843000	1164.368042	11.431875	0.319375	20.116249
167.994003	-27.205999	1041.148071	18.331249	27.610624	39.794998
137.128006	-92.720001	1016.565002	20.842501	29.916250	48.505627
90.889999	-70.577003	1086.227051	16.918125	14.713125	35.717499
98.514999	-85.278000	1027.911011	5.040000	3.591875	29.999374
168.542999	-81.191002	1067.317017	4.965625	4.641875	28.949375
111.203003	-53.192001	1101.233032	10.338125	13.291250	31.972500
130.235001	-63.257000	1129.475952	11.751250	11.589375	34.033127
57.218002	41.236000	1063.901001	15.540000	7.695625	36.583752
149.449997	83.204002	1149.666992	15.693125	-1.338750	23.305626
26.352001	95.648003	1108.308960	6.881875	7.997500	31.180626
107.177002	80.031998	1110.749023	3.097500	3.132500	29.378124
94.855003	83.021004	1088.911011	8.128750	10.504375	28.113750
114.619003	102.663002	1112.945068	-3.259375	12.433750	27.426874
213.561005	125.111000	1183.948975	-3.784375	14.017500	23.760626
52.154999	112.911003	1050.968994	-4.965625	35.980000	33.363750
113.704002	144.936005	1204.140015	1.653750	40.814377	19.398750
-33.123001	165.309998	1080.553955	-4.016250	52.723125	21.520624
14.274000	189.527008	1098.549072	2.165625	71.618752	24.259375
-107.970001	134.382996	959.530029	-7.844375	66.176247	33.306873
-144.753006	148.839996	958.919983	-11.576250	55.321877	15.798125
-216.611008	131.272003	922.869019	-18.020624	48.313126	7.061250
-154.818008	70.393997	973.621033	-15.225000	37.148125	5.503750
-310.856018	121.084999	938.057983	-9.222500	64.255623	1.986250
-223.686996	28.182001	977.036987	-9.200625	47.748749	-6.925625
-250.770996	32.757000	932.629028	-4.243750	39.952499	-4.147500
-430.721008	93.695999	867.541992	17.154375	49.463749	-17.416876
-307.928009	69.174004	888.953003	6.685000	27.164375	-17.915625
-312.320007	41.053001	874.496033	1.198750	40.796875	-19.293751
-305.670990	7.808000	894.565002	6.531875	23.428125	-29.141874
-302.621002	38.063999	825.268982	10.990000	27.663124	-23.170000
-393.450012	15.433001	751.337036	10.298750	27.391874	-25.808125
-375.088989	23.241001	811.666016	11.261250	15.439375	-28.826876
-344.772003	41.663002	732.854004	8.754375	6.667500	-29.526875
-415.959015	-11.529000	712.601990	13.120625	15.653750	-24.793125
-447.252014	96.989998	730.048035	8.780625	-8.610000	-28.678125
-399.183990	-37.820000	783.606018	29.386875	-13.969375	-37.003750
-345.687012	-61.915001	734.317993	33.022499	-21.358749	-51.795624
-351.420990	-99.369003	858.270020	24.771250	-30.165625	-35.118126
-351.970001	-57.584000	778.359985	21.538124	-33.893124	-38.644375
-325.862000	-126.086998	863.088989	19.324375	-34.396252	-36.837502
-375.882019	-54.473000	942.205994	13.715625	-44.253124	-24.692499
-134.626999	-122.792999	844.606018	23.428125	-39.401249	-36.273125
-238.205002	-87.047005	913.109009	10.447500	-36.176876	-36.474377
-153.171005	-39.528000	859.673035	-0.424375	-56.861874	-41.068127
-156.404007	-126.696999	919.757996	-8.045625	-42.612499	-24.753750
-234.544998	-152.317001	946.536987	-15.736875	-39.204376	-14.857500
-167.811005	-216.184006	1062.315063	-12.687500	-46.847500	-10.325000
-194.285004	-186.538010	1033.766968	-8.386875	-54.026875	-28.507500
-109.128998	-188.001999	1033.218018	-14.958125	-65.747498	-16.979376
-15.494000	-265.838013	1196.759033	-0.691250	-46.405624	-8.732500
-64.660004	-226.371002	1086.654053	4.453750	-18.663750	-6.873125
47.640999	-197.639999	1045.967041	-10.705625	-49.035000	-11.033750
96.258003	-195.809998	964.288025	-2.091250	-28.367500	8.675625
-39.223000	-128.404999	891.027039	11.217500	-5.162500	30.353750
83.875000	-113.459999	1134.966064	15.246875	-43.080624	30.073750
104.126999	-74.114998	1102.148071	10.062500	-38.145626	12.941250
221.613007	-43.798000	1225.734009	13.934375	-35.905624	10.653125
158.844009	-84.850998	1051.030029	15.544375	-1.225000	27.142500
68.320000	-37.453999	972.340027	23.673124	6.527500	30.445625
102.297005	-44.225002	984.296021	24.027500	2.533125	19.385626
123.769005	-63.684002	1145.519043	10.797500	-0.984375	19.490625
99.002998	-30.988001	1127.524048	6.886250	1.242500	27.269375
105.347000	-23.118999	1155.828003	5.954375	-1.601250	22.251249
140.117004	-56.730000	1133.075073	-0.490000	1.820000	20.518749
146.278000	-16.836000	1117.764038	10.701250	11.029375	21.511875
78.140999	67.282997	1072.380005	13.470625	24.845625	14.984375
150.914001	100.710999	1125.266968	11.576250	27.899376	10.504375
89.426003	85.155998	1133.928955	-3.325000	17.758125	22.715000
45.445000	62.159000	1031.692993	-23.353750	6.339375	24.263750
108.702003	-0.854000	1018.212036	-25.484375	-15.093750	27.545000
146.095001	-78.812004	1060.546021	-13.203750	-13.116250	40.131874
137.677002	-83.936005	1107.150024	-2.506875	12.083750	36.540001
83.997002	-64.721001	1033.035034	2.695000	10.819375	35.945000
127.063004	50.751999	1096.657959	5.656875	-2.078125	21.936251
88.266998	21.472000	989.664001	-2.340625	-24.775625	31.985624
112.423004	33.672001	1078.968018	11.230625	-4.344375	33.201874
125.538002	53.497002	1181.386963	3.718750	7.695625	26.521250
160.735001	146.033997	1160.036987	-9.156875	-7.013125	17.486876
161.772003	112.118004	1134.661011	-7.603750	20.234375	33.053123
-6.588000	212.462997	1222.317993	-7.625625	48.413750	24.657499
-73.626999	200.994995	1087.081055	-25.305000	36.470001	25.952499
24.705000	119.316002	1078.785034	-5.810000	37.520000	37.078125
-10.614000	141.947006	1121.911987	9.056250	63.402500	23.095625
-36.844002	139.201996	938.241028	4.221875	62.601875	10.500000
-51.118000	170.311996	982.221985	18.694374	81.025002	-0.284375
6.832000    123.464005	1010.160034	1.925000	70.686874	6.776875
-175.619003	127.551003	893.223022	-2.826250	84.153122	8.421875
-162.503998	58.011002	926.101990	3.303125	73.373123	-12.280625
-132.736008	114.802002	888.221008	18.602501	61.805626	-30.865625
-253.943008	12.871000	851.010986	34.650002	62.916874	-41.098751
-384.239014	45.993999	718.397034	29.351875	60.541248	-59.981251
-426.695007	67.649002	788.791016	18.655001	41.085625	-60.033749
-502.334991	26.047001	632.325989	31.600624	34.890625	-53.130001
-314.272003	50.813000	663.192017	48.282501	20.238750	-51.944374
-414.373016	55.570999	614.757996	51.296875	6.781250	-48.260624
-374.113007	-41.602001	623.359009	50.391251	2.686250	-48.755001
-425.291992	50.386002	603.289978	42.192501	-36.198750	-53.383751
-278.587006	-94.611000	704.976990	51.397499	-30.686251	-39.541248
-299.815002	-81.008003	604.815002	38.451874	-44.401875	-36.614376
-358.131012	-149.511002	753.044983	39.571877	-53.178123	-27.028749
-302.743011	-115.717003	832.833008	6.890625	-73.136871	-12.446875
-277.489014	-79.971001	779.885010	8.076250	-79.638123	-20.247499
-204.289001	-64.660004	765.976990	-15.929375	-83.435623	-10.543750
-106.932999	-53.313999	1156.376953	11.488750	-80.114998	-11.541250
-170.311996	-69.174004	1205.482056	-4.650625	-88.724998	4.593750
-53.985001	-50.569000	1242.020996	-27.781250	-85.465622	7.940625
-41.358002	-167.078995	1235.188965	-26.827499	-62.763748	10.486875
16.226000	-104.919998	1196.026978	-20.299999	-66.377502	8.815625
129.137009	-161.955002	1223.660034	-8.308125	-39.423126	3.600625
26.535000	-150.548004	1058.776978	8.483125	-12.022500	10.863125
60.695000	-128.160995	1037.915039	21.511875	-12.600000	7.126875
-21.410999	-5.795000	955.809021	13.383125	-22.369375	9.078125
130.662003	-44.225002	1035.414062	6.361250	-32.449375	22.981874
24.583000	9.821000	1012.416992	7.153125	-25.449375	27.024376
158.844009	-39.771999	1080.614990	7.441875	-25.287500	26.901875
142.617996	3.660000	1051.822998	-0.993125	-25.506250	34.720001
175.802002	35.136002	1115.446045	-0.551250	-25.536875	24.727501
229.665009	-24.217001	1065.547974	-5.131875	-16.795626	28.643126
110.227005	81.618004	928.054016	1.124375	-39.156250	17.823750
372.100006	64.050003	1404.463989	-7.437500	-14.288750	12.083750
281.881012	-19.459000	1007.781006	-20.155624	-2.515625	32.243752
254.431000	-49.715000	1094.523071	15.636250	24.670626	30.826250
167.688995	-26.047001	968.436035	8.802500	8.054375	22.518126
357.520996	-25.498001	1177.117065	2.778125	-8.106875	14.363125
228.201004	-49.105000	1093.912964	-9.235625	17.911249	38.806252
218.319000	-91.317001	1018.882996	-1.623125	29.049999	26.508125
173.850006	-29.402000	1108.248047	12.035625	19.893126	21.905624
198.311005	-76.494003	1042.978027	9.616250	34.396252	31.447500
156.221008	9.699000	1138.015991	10.596250	14.835625	14.612500
126.514000	56.364002	1042.612061	9.279375	9.953125	19.232500
135.602997	124.135002	1067.072998	7.529375	18.904375	17.836876
145.729004	171.654007	1137.344971	4.431875	11.816875	13.378750
66.368004	173.484009	1153.388062	2.502500	39.615623	34.825001
7.381000	138.104004	1095.376953	4.274375	46.016251	41.020000
113.338005	129.259003	1120.630981	5.617500	38.110626	28.546875
37.576000	136.212997	1073.843994	-3.513125	38.198124	34.755001
86.681000	153.903000	1072.258057	-20.238750	20.719999	27.133751
5.978000	195.261002	1100.073975	-8.168125	43.382500	22.916250
-11.712000	155.611008	1043.405029	-10.246250	63.551250	20.947500
-187.391998	154.940002	922.137024	-16.791250	58.655624	29.054375
-209.596008	109.617004	893.772034	19.376875	47.061874	0.078750
-244.000000	205.264999	1005.950989	15.421875	56.231876	-8.885625
-264.923004	179.156998	1012.294983	11.414375	42.923126	-20.370001
-264.862000	268.888000	1011.746033	12.858125	41.015625	-22.338751
-234.362000	214.903000	1026.141968	3.924375	41.483749	-9.563750
-185.318008	127.063004	948.184021	-2.515625	42.446251	-11.676875
-248.026001	227.102997	919.880005	-10.136875	40.306873	-20.728750
-179.156998	123.769005	945.622009	2.358125	42.363125	-24.591875
-274.622009	85.460999	839.908997	7.608125	36.299374	-32.497501
-389.667999	73.688004	784.216003	19.031250	31.946251	-40.276249
-291.763000	31.903000	671.000000	17.928749	19.718124	-43.850624
-394.852997	27.816000	786.351013	12.556250	14.310625	-35.888126
-404.247009	81.069000	711.931030	25.475624	8.316875	-33.849377
-390.522003	-16.714001	807.640015	14.555625	0.555625	-29.741249
-414.617004	30.866001	724.924011	13.225625	-10.723125	-50.596874
-321.835999	-47.702000	787.143982	16.240000	-14.301875	-48.221249
-474.519012	-15.494000	770.307983	-3.403750	-13.234375	-34.011250
-357.154999	-68.990997	756.888000	19.123125	-16.677500	-46.278751
-432.612000	-84.057999	725.168030	20.916876	-33.079376	-42.021873
-317.932007	-111.813004	875.044983	15.649375	-44.082500	-47.827499
-242.658005	-79.788002	887.306030	18.956875	-35.105000	-52.220001
-305.731995	-80.398003	960.262024	27.370001	-42.940624	-39.112499
-273.768005	-62.220001	898.164001	34.658749	-48.085625	-33.184376
-203.434998	-18.788000	886.879028	28.918751	-54.355000	-29.688749
-211.121002	-78.263000	872.666016	7.192500	-41.208126	-8.137500
-198.128006	-107.848000	869.250000	-10.561250	-53.733749	-14.975625
-168.848007	-86.437004	914.512024	-11.025000	-56.122501	-20.545000
-48.312000	-169.518997	1022.604004	-18.681250	-55.343750	-10.836875
-72.285004	-174.703995	1145.946045	-17.657499	-47.166874	-13.606250
0.244000	-154.757004	1123.925049	-21.608126	-62.059376	-10.661875
84.729004	-244.671005	1160.036987	-11.440625	-38.443127	-8.369375
67.222000	-207.949005	1175.958008	-7.468125	-20.317499	-7.109375
66.246002	-192.638000	1044.869019	-4.676875	-22.732500	1.373750
49.653999	-150.059998	1062.802979	5.127500	-31.088751	3.928750
166.102997	-153.720001	1053.652954	24.062500	-12.180000	-0.476875
44.408001	-119.499001	980.087036	24.071251	-17.395000	11.816875
200.324005	-134.565994	1194.014038	25.213125	-30.533125	18.379375
161.833008	-119.438004	1000.583008	22.356251	-19.381250	32.221874
260.958008	-58.621002	1194.562988	39.230625	9.126250	46.156250
-17.080000	108.092003	861.991028	32.221874	-16.362499	37.371250
172.813004	111.081001	1084.763062	28.406876	-40.048752	32.073124
144.630997	40.199001	1059.143066	9.581250	-34.448750	45.631248
196.481003	92.170998	1130.025024	10.815000	-29.071875	27.938749
203.557007	50.691002	1225.307007	5.722500	3.486875	30.913750
230.091995	10.187000	1138.198975	-1.653750	-7.971250	33.153751
173.300995	78.263000	1243.302002	2.856875	7.516250	28.551250
202.397995	50.813000	1061.217041	-10.753750	3.920000	33.564999
170.738998	132.309006	1118.068970	-3.285625	19.451250	35.026249
206.363007	39.771999	1033.035034	-18.528126	13.247500	35.608124
226.737000	45.932999	1032.485962	-11.930625	4.418750	28.056875
218.563004	6.039000	1001.742004	-10.508750	9.196250	30.012501
257.359009	-39.894001	1027.972046	-4.571875	6.601875	25.729376
65.696999	-40.260002	999.484985	7.616875	15.627500	36.264374
168.970001	-5.917000	1052.432983	18.720625	17.815001	31.565624
154.695999	71.125999	1003.816040	24.539375	14.463750	21.857500
120.779999	24.521999	991.189026	21.455000	14.761250	31.876249
243.268005	66.368004	1034.803955	19.910625	6.238750	21.275625
309.330994	40.687000	1189.378052	-2.030000	-9.598750	20.606251
113.033005	83.082001	1151.375000	0.945000	17.968124	29.325624
155.671997	104.249001	1214.998047	4.248125	27.273750	14.564375
258.518005	188.307007	1054.019043	12.713750	8.710625	8.325625
151.158005	185.074005	1011.197021	7.118125	28.367500	34.881874
116.998001	186.781998	1084.458008	5.455625	49.376251	39.856251
41.663002	145.729004	936.166992	2.765000	49.035000	39.042500
100.162003	118.645004	1044.930054	0.201250	43.951248	23.813126
-17.507000	207.643997	974.231018	3.486875	56.376251	13.803125
-61.610001	138.714005	945.866028	-8.728125	47.145000	5.560625
-228.811005	169.214005	930.005981	-10.885000	39.576248	-5.941250
5.612000	153.475998	985.942993	0.052500	31.753750	-11.773125
-161.100998	174.643005	991.677002	-1.150625	33.866875	-6.531875
-69.174004	151.341003	979.965027	5.543125	32.165001	-5.586875
-254.003998	165.675995	1049.016968	-8.513750	35.743752	5.197500
-236.802002	185.013000	1065.303955	-8.268750	35.809376	-8.579375
-200.385010	170.800003	1049.932007	4.930625	45.937500	-18.711876
-318.847015	169.580002	980.087036	4.900000	37.834999	-35.669376
-243.389999	104.309998	888.708984	-1.115625	26.840626	-36.509377
-260.958008	112.423004	872.910034	15.815625	35.936249	-51.257500
-159.514999	107.848000	822.768005	1.172500	24.364374	-40.311249
-263.946991	130.479004	772.260010	7.441875	40.066250	-23.541876
-274.317017	38.552002	764.025024	2.926875	33.963123	-29.833124
-254.675003	50.020000	855.220032	-7.822500	15.570625	-23.152500
-376.126007	-27.450001	658.372986	9.786875	18.099375	-34.505627
-402.295013	7.381000	767.867981	13.142500	-11.086250	-49.520626
-215.208008	-5.063000	737.246033	16.152500	-20.181875	-54.494999
-274.561005	-124.745003	639.280029	13.562500	-7.555625	-40.468750
-262.483002	-119.316002	637.510986	6.794375	-38.399376	-45.705624
-211.609009	-103.578003	637.450012	-9.231250	-45.574375	-44.629375
-234.667007	-203.679001	742.004028	19.963125	-46.856251	-48.361252
-261.873016	-157.867996	936.166992	30.471874	-57.837502	-59.281250
-69.479004	-233.141998	977.036987	39.759998	-68.888748	-54.223751
-96.563004	-299.144012	1140.395020	27.733126	-50.631874	-30.170000
-83.447998	-181.475006	1113.677002	14.861875	-49.218750	-37.533127
-150.425995	-264.373993	1074.393066	-9.633750	-44.169998	-13.833750
-141.214996	-95.770004	1137.406006	5.573750	-26.197500	-10.329375
6.832000	-260.165009	1068.536987	-22.715000	-40.131874	-7.437500
-23.546000	-144.387009	1063.046997	-19.761875	-13.803125	-15.728125
-84.180000	-158.966003	916.036987	-11.287500	-11.983125	-7.350000
-43.249001	-208.863998	1044.625000	-14.175000	-26.337500	7.201250
-48.494999	-176.656006	1067.805054	-10.797500	-17.093124	19.530001
-29.219000	-208.498001	975.145996	-5.875625	-22.640625	11.996250
64.171997	-164.334000	1160.952026	5.600000	-36.224998	6.641250
45.506001	-159.149002	1067.011963	6.514375	-40.477501	15.758750
157.440994	-180.072006	1125.083984	11.370625	-35.122501	16.384375
99.490997	-110.836998	1079.212036	27.754999	-25.480000	23.638124
217.647995	51.423000	1194.258057	51.620625	-16.887501	33.188751
-79.910004	202.031998	1103.368042	40.171249	-12.398750	32.895626
108.214005	196.481003	1158.695068	13.741875	-33.740002	24.788750
162.931000	110.471001	1181.020996	-6.925625	-30.826250	36.264374
173.484009	27.755001	1044.747070	-8.999375	-16.135000	39.305000
225.151001	35.929001	1180.959961	10.994375	13.090000	35.091873
175.802002	44.347000	1016.199036	14.000000	32.917500	36.841873
106.322998	77.409004	1050.603027	10.294375	25.003124	26.096874
112.911003	73.444000	1009.611023	1.386875	7.262500	24.963751
109.068001	51.300999	1026.812988	7.520625	10.906875	23.730000
120.048004	43.126999	993.567993	2.288125	-2.590000	18.676874
128.283005	-19.153999	1021.140015	-1.570625	-12.433750	23.292500
180.621002	-79.666000	1156.560059	1.356250	-4.672500	18.650625
125.965004	-147.925003	1097.207031	-1.929375	-7.249375	21.660625
251.807999	-153.415009	1103.795044	16.489374	-9.506875	25.808125
64.171997	-185.074005	1186.145020	8.439375	12.827500	44.515625
248.391998	-125.050003	1303.265015	-10.968125	7.201250	34.916874
238.936996	-95.403999	1129.475952	-11.462500	18.011875	63.761250
68.564003	79.238998	1519.510010	17.797501	45.403751	69.531876
194.102005	315.553009	999.484985	13.654375	62.816250	52.276875
32.146999	322.873016	1134.478027	8.990625	78.343124	42.949375
18.056000	335.988007	1139.052979	-3.880625	64.216248	34.509998
102.175003	377.285004	1025.471069	8.400000	67.987503	33.131874
-56.486000	369.233002	994.910034	9.607500	79.183128	30.905001
-41.968002	391.192993	943.791992	8.233750	53.099377	1.465625
-1.647000	312.929993	922.625000	-16.572500	65.148125	7.945000
-118.766998	313.783997	846.679993	-14.800625	77.227501	-3.885000
-208.925003	324.398010	620.919006	-6.269375	69.295624	-20.339375
-253.455002	274.438995	723.093994	7.437500	48.628124	-46.838749
-273.890015	227.529999	734.074036	4.812500	30.371250	-43.426250
-194.468002	157.319000	837.346985	13.422500	37.139374	-43.540001
-323.178009	158.356003	654.591003	14.721875	30.353750	-48.369999
-290.847992	58.621002	843.934998	37.069374	27.881874	-48.641251
-321.470001	32.390999	729.377014	44.485001	20.851250	-70.555626
-267.118988	-0.122000	710.283997	31.758125	-12.390000	-70.699997
-265.106018	-138.470001	691.739990	39.138748	9.349375	-51.511250
-395.097015	-215.574005	611.220032	23.598749	-10.705625	-46.856251
-340.196991	-78.445999	813.496033	21.310625	-22.181250	-66.368752
-250.100006	-75.762001	793.731995	20.623751	-36.579376	-70.848747
-321.165009	-63.318001	768.783020	17.517500	-28.004375	-40.280624
-399.306000	-100.345001	754.692017	32.322498	-26.971874	-28.608126
-287.371002	-240.218002	814.106018	15.960000	-59.727501	-45.911251
-255.468002	-137.005997	817.949036	8.728125	-69.440002	-62.203751
-166.529999	-155.671997	929.700989	7.538125	-54.232498	-53.073124
-261.690002	-151.828995	793.671021	-11.033750	-81.033752	-21.918751
-124.928001	-226.615005	1082.872070	-6.002500	-59.898125	-18.431875
-288.225006	-150.792007	999.606995	-19.000626	-68.753128	-12.884375
-7.808000	-222.710999	1194.441040	-3.893750	-40.341873	5.901875
-82.532997	-162.992004	1071.891968	-13.715625	-59.548126	-4.725000
182.268005	-204.777008	1197.430054	1.067500	-51.957500	-5.236875
-10.797000	-130.906006	1026.995972	1.325625	-30.051874	-1.680000
121.817001	-140.238998	1069.696045	2.852500	-35.463749	-11.423125
140.848999	-150.731003	1044.990967	13.960625	-20.584375	5.814375
76.006004	-186.904007	1021.200989	12.228125	-3.377500	17.701250
122.732002	-111.996002	1122.217041	9.454375	-23.266251	12.341875
119.071999	-94.183998	1095.255005	14.848750	-21.258125	15.872500
127.856003	25.315001	1136.674072	29.491875	13.098750	23.043125
92.232002	-16.653000	1106.661987	8.146250	1.771875	23.296875
250.404999	25.742001	1146.494995	0.630000	-16.218124	17.355625
116.448997	67.709999	1004.791992	13.383125	47.210625	33.031250
88.084000	92.780998	1071.708984	7.424375	18.961250	32.309376
100.162003	150.304001	1127.707031	10.618125	7.638750	35.433125
-58.194000	203.800995	1078.846069	8.246875	16.625000	33.525623
89.487000	137.615997	1077.138062	2.292500	-7.446250	34.492500
34.465000	82.899002	1081.591064	0.065625	17.101875	38.889374
51.484001	83.142998	1032.608032	4.095000	-0.131250	26.254375
73.566002	51.362000	980.941040	10.150000	-1.015000	14.555625
94.367004	29.463001	940.924988	4.707500	-3.150000	8.925000
77.225998	42.944000	997.289001	6.790000	-2.603125	2.835000
118.950005	-21.837999	1024.556030	2.100000	-7.848750	13.313125
51.300999	-55.144001	1009.062012	-1.198750	-6.081250	20.518749
111.141998	-97.173004	1015.345032	5.136250	-3.421250	17.701250
77.592003	-131.638000	959.103027	8.561875	-0.761250	26.079374
114.741005	-152.195007	1011.319031	16.231251	-8.155000	20.501249
55.815002	-159.149002	1097.695068	5.915000	-10.058125	28.048124
52.764999	-51.972000	1154.364014	5.543125	-8.050000	30.738750
121.207001	-56.608002	1153.754028	2.673125	-8.995000	27.982500
184.098007	5.612000	1199.260010	12.543125	13.470625	26.495001
36.417000	72.285004	1109.529053	17.863125	31.526251	38.915627
71.918999	113.277000	1294.541992	3.403750	32.108124	39.895626
68.442001	76.494003	1365.973022	4.970000	34.046249	23.813126
104.371002	165.919998	1206.458008	-3.863125	40.398750	20.216875
99.307999	227.285995	1305.583008	-7.122500	57.719376	16.686251
93.269005	252.783997	1058.349976	-32.567501	41.273750	14.564375
-52.582001	234.667007	1189.255981	-29.907499	60.523750	33.075001
42.639000	161.833008	1135.270996	-25.532499	70.026253	28.787500
-145.912003	237.656006	991.372009	-16.839375	69.689377	29.452499
-139.873001	150.852997	989.176025	-22.469999	78.461250	23.931250
-198.311005	246.867004	891.332031	-13.278125	74.685623	26.726875
-179.522995	186.660004	875.228027	-1.583750	72.161247	21.415625
-167.139999	193.919006	891.942017	1.028125	69.483749	3.351250
-329.949005	298.412018	694.851013	23.135000	73.106247	-7.113750
-249.856003	232.776001	786.533997	19.901875	55.610626	-22.124374
-310.002014	284.565002	773.906982	13.160000	50.159374	-9.292500
-395.218994	170.434006	737.978027	23.266251	35.616875	-52.744999
-471.286011	217.038010	720.653992	-9.865625	15.430625	-58.318748
-337.390991	107.237999	642.208008	22.653749	4.305000	-55.619373
-256.139008	13.420000	560.590027	46.029373	12.998125	-53.886875
-326.411011	-29.951000	468.235992	53.786251	0.945000	-43.308125
-440.847015	-90.158005	601.276978	72.471878	0.835625	-37.165627
-489.097992	-32.330002	574.559021	46.808125	-13.199375	-61.731251
-279.929016	-113.338005	638.548035	41.553749	-36.933750	-36.124374
-458.658997	-74.969002	809.226013	59.066875	-45.163124	-38.561249
-325.191010	-165.615005	864.247986	17.373125	-67.375000	-8.806875
-429.257019	-158.660995	915.549011	14.310625	-55.488125	-33.538750
-198.615997	-58.132999	834.236023	2.165625	-57.054375	-24.325001
-371.734009	-175.619003	975.023987	10.224375	-69.768127	-7.787500
-366.915009	-92.292999	984.479004	0.713125	-52.101875	-40.652500
-215.208008	-45.628002	937.814026	-17.093124	-97.921249	-38.793125
-115.350998	-135.725006	1124.596069	-11.191250	-66.679375	-28.100624
-198.677002	-88.816002	1028.582031	-12.215000	-63.826874	-21.420000
-27.572001	-154.451996	1180.959961	-17.495625	-68.285004	-9.130625
-65.941002	-205.692001	1080.370972	5.293750	-54.398750	0.940625
-61.671001	-143.716003	1272.643066	-0.765625	-45.679375	-2.533125
-53.253002	-66.489998	1143.078979	0.135625	-45.408127	-7.717500
109.128998	-16.287001	1081.651978	3.425625	-40.311249	1.631875
43.310001	31.354000	1131.244995	24.911249	-17.583124	3.819375
60.024002	23.485001	1064.145020	17.574375	-15.128750	15.662500
115.717003	8.052000	1157.291992	6.055000	-25.615625	24.753750
157.136002	-1.159000	1018.944031	2.358125	-14.468125	31.714375
53.253002	12.322001	1015.650024	-1.369375	-11.755625	28.673750
199.042999	-21.716000	1003.632996	5.184375	-15.378125	26.315624
93.452003	-38.552002	1166.442017	-6.943125	-6.803125	17.644375
159.149002	-49.959000	1020.225037	-14.481250	-6.457500	22.063126
160.307999	-27.511000	1085.250977	2.878750	-18.322500	20.632500
184.768997	-14.640000	1041.574951	12.145000	5.875625	25.974375
160.856995	13.298000	1068.475952	-2.966250	-5.788125	30.454374
203.740005	-30.439001	1153.937012	-9.555000	-16.139376	30.834999
147.193008	-58.255001	942.510986	-5.810000	-15.767500	37.660000
220.087997	-31.354000	1069.146973	-5.201875	-6.037500	26.538750
216.061996	-69.357002	1128.500000	3.683750	7.511875	19.175625
159.453995	-63.623001	1102.575073	5.276250	14.546875	26.236876
142.496002	-92.964005	1053.836060	7.643125	10.482500	30.546249
252.662003	-80.764000	1214.327026	11.138750	0.201250	20.006874
180.132996	-21.350000	1145.640991	-3.430000	-0.275625	20.702499
245.281006	46.909000	951.294983	-1.080625	-9.633750	34.781250
190.380997	56.059002	1101.660034	18.051250	11.480000	32.576248
148.656998	75.334999	1065.914062	10.408125	26.018126	36.106876
236.436005	40.504002	1097.145996	7.122500	8.526875	31.709999
105.834999	88.206001	1115.750977	-0.818125	32.689999	37.336250
169.945999	146.216995	1030.777954	-14.227500	10.920000	38.255001
95.098999	72.895004	1054.994995	-6.125000	49.647499	38.570000
88.023003	125.965004	1097.145996	7.358750	45.990002	25.357500
35.196999	95.160004	1016.992004	13.208125	50.614376	27.711250
16.469999	81.496002	1067.805054	3.198125	49.656250	19.963125
-10.675000	94.550003	1019.309998	-6.496875	41.790001	17.530624
-25.498001	53.618999	1028.155029	-9.568125	46.099377	11.580625
-78.750999	104.249001	1038.098022	7.411250	48.768124	10.583125
-88.511002	61.915001	1007.231995	20.807501	51.887501	14.358750
-95.831001	78.812004	1009.976990	14.962500	57.334373	15.041250
-197.335007	119.438004	972.401001	16.655624	49.857498	15.596875
-203.679001	149.328003	957.944031	8.859375	45.128124	10.141250
-264.618011	141.581009	901.518982	0.280000	49.700001	2.843750
-267.545990	146.949005	917.195984	9.471875	32.466873	-5.779375
-368.378998	147.498001	894.687012	14.739375	31.360001	-21.892500
-198.738007	145.790009	940.864014	5.888750	10.268125	-17.679375
-334.463013	85.400002	869.554993	15.378125	28.091875	-10.482500
-377.528992	126.575005	801.601013	5.998125	39.952499	-26.110001
-339.953003	97.234001	795.379028	6.505625	35.411251	-30.638124
-428.890991	139.018997	809.653015	22.618750	23.305626	-41.978127
-452.437012	173.179001	741.210999	24.368750	19.088125	-42.643124
-466.040009	97.904999	841.494995	31.648750	8.496250	-53.326874
-454.694000	117.425003	808.372009	21.529375	-4.943750	-53.348751
-396.134003	85.643997	825.330017	11.571875	-32.116875	-55.925625
-243.634003	-7.564000	1021.994019	-0.525000	-6.247500	-63.739376
-411.994019	72.651001	729.682007	11.628750	16.244375	-48.833752
-492.391998	-27.999001	693.570007	29.592501	4.357500	-43.710625
-316.894989	-45.018002	766.038025	17.508751	-11.501875	-50.693127
-162.931000	-94.672005	758.291016	26.635000	-44.594376	-57.321251
-253.333008	-70.698997	843.812988	13.768125	-49.743752	-45.119373
-246.013000	-44.713001	688.567993	52.626877	-45.403751	-64.063126
-237.960999	-27.328001	791.231018	49.958126	-57.741249	-58.450001
-195.199997	-75.152000	891.393005	30.051874	-62.453125	-27.422501
-310.795013	-108.214005	962.885010	23.848125	-70.398125	-15.846250
-174.337997	-104.249001	958.676025	19.140625	-78.290627	-33.499374
-117.303001	-152.988007	1170.468018	-8.850625	-67.099373	-29.570625
-149.449997	-74.054001	978.867004	-14.564375	-80.088753	-10.815000
-54.351002	-143.899002	970.083008	-2.152500	-63.437500	-10.080000
131.638000	-167.322998	989.968994	-20.365625	-68.599998	2.988125
95.160004	-194.895004	943.059998	-1.859375	-61.669998	12.591250
127.124001	-186.964996	933.971008	-4.830000	-70.035004	10.119375
187.026001	-158.722000	1084.336060	1.211875	-88.414375	26.004999
213.744003	-111.386002	1144.115967	24.368750	-66.683746	12.460000
363.011017	11.590000	1256.539062	13.308750	-59.185001	1.273125
344.406006	34.587002	1174.982056	-8.640625	-60.296249	33.490623
482.632019	-4.941000	1203.774048	3.631250	-24.171875	38.959373
205.570007	49.105000	1088.057007	6.965000	4.676875	24.635626
437.796997	-30.743999	1024.556030	-0.363125	8.360625	41.094376
178.303009	26.474001	888.343018	2.883125	13.120625	21.717501
421.510010	-66.001999	985.210999	-12.950000	-9.520000	17.167500
421.632019	-65.514000	1064.816040	-5.136250	-15.172500	22.596874
319.334991	-21.228001	1007.536987	9.598750	2.699375	18.882500
422.730011	15.433001	1103.916992	7.170625	-14.656250	18.952499
360.632019	73.688004	1139.296997	19.551874	0.161875	22.146250
349.713013	80.581001	1068.292969	17.701250	13.361250	18.134375
421.083008	87.413002	1093.669067	-0.148750	1.645000	17.211250
332.755005	6.771000	886.025024	-4.655000	6.969375	6.825000
329.156006	-80.093002	909.083008	-7.004375	-0.595000	7.656250
315.369995	-184.891006	913.841003	-4.261250	-7.306250	13.868750
380.457001	-270.046997	976.244019	4.948125	3.311875	16.463125
280.050995	-258.761993	894.504028	10.780000	-0.424375	29.408751
340.989990	-259.372009	987.468018	21.958124	4.116875	30.528749
318.359009	-160.247009	1001.376038	25.681250	9.345000	31.631250
300.485992	-78.750999	979.843018	18.445000	-3.447500	37.716873
389.667999	-94.916000	1120.326050	20.173124	19.088125	35.844376
360.083008	-40.564999	1062.375977	4.370625	24.696875	37.581249
263.641998	-7.564000	1146.617065	6.409375	43.793751	42.131248
280.234009	24.278000	1169.796997	-2.909375	29.627501	34.330624
302.132996	41.968002	1271.545044	5.556250	32.921875	29.395624
326.532990	79.483002	1250.317017	-0.052500	32.068748	29.010626
399.794006	151.828995	1252.817993	-2.690625	41.798752	24.893749
291.824005	206.973007	1058.532959	-1.872500	51.738750	40.210625
125.233002	219.234009	1094.279053	13.199375	80.976875	39.536877
24.583000	278.526001	1006.317017	23.301250	81.493126	30.546249
122.305000	226.919998	1064.083984	14.958125	60.165001	26.963125
-10.126000	246.684006	1015.467041	7.126875	73.670624	5.118750
46.726002	166.042007	978.622986	6.470625	61.389999	-12.416250
-55.205002	227.408005	917.562012	19.753124	59.241875	-22.246876
-80.703003	194.956009	882.426025	27.785625	73.268127	-28.761250
-154.391006	157.563004	847.290039	19.761875	64.863747	-34.973751
-193.919006	132.065002	788.913025	20.186251	41.063751	-36.557499
-219.417007	89.853004	835.212036	19.306875	45.587502	-44.029999
-192.028000	92.659004	776.468994	13.203750	40.005001	-51.257500
-238.022003	77.104004	686.432983	15.058750	16.966249	-46.707500
-337.208008	5.063000	654.103027	19.613125	12.481875	-56.704376
-405.222992	33.184002	627.629028	32.768749	-13.378750	-60.781876
-271.511017	-44.042000	638.914001	44.992500	-17.998751	-59.163124
-356.789001	-39.223000	611.647034	35.402500	-19.976250	-71.837502
-291.153015	-79.848999	725.229004	16.852501	-44.406250	-77.065628
-217.160004	-26.657000	695.522034	22.671249	-60.248123	-68.442497
-166.957001	-127.063004	848.265991	29.338751	-41.593124	-50.938126
-276.940002	-128.343994	940.986023	12.928125	-54.709373	-38.220001
-56.547001	-183.427002	963.983032	8.693125	-52.574375	-38.198124
-303.170013	-105.529999	1113.859985	-15.487500	-31.548124	-29.395624
-25.498001	-177.509995	1190.415039	2.585625	-34.763748	-1.894375
-150.548004	-146.156006	1020.773987	-2.664375	-14.293125	-0.249375
-120.779999	-98.576004	1073.782959	-17.924376	-20.978125	-9.568125
-99.002998	-97.234001	976.609985	-26.236876	-49.398125	-2.590000
-109.250999	-88.876999	1024.433960	-13.737500	-40.219376	-4.580625
-19.276001	-111.813004	1095.864990	-5.201875	-30.655624	-10.535000
-30.316999	-74.359001	1124.718018	-12.534375	-51.646873	1.750000
-11.895000	-48.068001	1217.193970	-1.627500	-37.148125	1.684375
38.247002	-73.016998	1176.629028	4.965625	-22.155001	5.639375
142.069000	-87.656998	1034.255005	-2.021250	-21.796249	19.057501
72.651001	-87.718002	1043.953979	-3.710000	-18.961250	25.952499
56.364002	-86.375999	986.553040	-7.240625	-27.212500	15.146250
135.054001	-139.873001	1053.042969	-7.288750	-36.211876	19.411875
163.846008	-175.802002	1046.942993	-4.952500	-23.625000	23.747499
158.660995	-159.576004	1071.221069	0.144375	-11.366250	27.684999
109.922005	-152.317001	988.017029	6.273750	-15.631875	33.560623
174.520996	-164.516998	977.768982	21.371876	-14.735000	22.999374
282.917999	-95.953003	1069.817993	30.918125	-0.021875	32.900002
243.145996	-48.190002	1144.725952	28.656250	-18.589375	35.993126
153.658997	1.769000	1108.065063	10.718750	3.395000	29.645000
211.669998	-3.904000	1048.712036	-6.833750	-41.466251	34.724377
287.554016	-24.948999	1175.531006	-3.736250	-7.791875	41.531876
281.027008	-83.509003	1038.890991	-3.066875	18.392500	44.428123
268.826996	-77.409004	1106.479004	8.281875	30.988125	37.021252
226.981003	-64.660004	1054.933960	17.683750	37.231251	32.659374
165.554001	-3.538000	1050.297974	13.938750	15.456875	38.609375
155.367004	19.093000	1066.036011	7.765625	22.706249	36.098125
127.185005	26.413000	1022.299011	-4.151875	16.751875	30.629375
107.237999	-16.714001	1203.530029	-9.856875	10.990000	36.400002
194.041000	58.438000	1202.676025	7.638750	19.324375	28.284374
74.237000	97.904999	1108.858032	10.683750	37.051876	30.371250
152.500000	131.943008	1217.926025	7.271250	31.801874	25.475624
71.248001	114.802002	1107.760010	-1.299375	42.000000	28.481251
66.368004	111.874001	1097.207031	-2.200625	43.666874	34.295624
67.466003	178.912994	1140.943970	3.928750	42.581875	28.354376
-50.691002	119.376999	1106.906006	-9.743125	45.876251	34.168751
-21.716000	147.253998	1157.841064	-3.005625	61.005001	20.050625
-27.632999	135.419998	1104.953979	-12.350625	61.862499	10.513125
-122.000000	247.721008	919.514038	-11.055625	65.848122	14.008750
-200.934006	213.988007	883.158020	-7.179375	75.949997	4.475625
-165.492996	181.779999	765.611023	13.523125	78.942497	-10.863125
-377.651001	230.885010	778.726013	12.289375	51.935623	-11.571875
-300.730011	152.255997	842.166016	13.343750	43.973125	-25.882500
-335.744019	159.393005	865.895020	16.135000	32.624374	-35.870625
-279.562988	47.824001	924.638000	7.096250	18.235001	-53.322498
-234.727997	-2.196000	893.283997	-3.110625	10.198125	-49.573124
-383.019012	-59.353001	808.799011	10.570000	27.781250	-52.605000
-371.856018	-21.533001	680.272034	29.176874	12.985000	-52.644375
-412.665009	-57.827999	695.643982	26.136250	6.610625	-58.625000
-262.178009	-64.233002	738.710022	15.264375	-14.035000	-55.426876
-401.257996	-59.230999	747.311035	26.026875	-10.565625	-52.469376
-265.959991	-115.107002	759.205994	31.163124	-17.867500	-41.654373
-338.855011	-105.469002	747.067017	29.540001	-31.801874	-40.166874
-285.053009	-104.554001	782.447021	37.638126	-21.078751	-46.414375
-272.548004	-90.158005	796.538025	23.082500	-39.300625	-45.443127
-274.134003	-28.182001	590.114014	22.846251	-50.658127	-47.136250
-160.552002	-209.291000	851.132996	10.233125	-72.568123	-37.638126
-119.743004	-167.628006	815.203979	22.719376	-72.651253	-22.176874
-33.733002	-283.955017	1004.121033	17.421249	-64.592499	-24.031876
-99.064003	-167.445007	992.286987	2.716875	-77.923126	-14.074375
73.321999	-228.994003	1292.651001	1.080625	-48.715626	-8.894375
-37.942001	-158.173004	1254.953003	-4.738125	-46.095001	-5.228125
20.862000	-122.670998	1082.505981	-14.840000	-60.602501	-4.256875
105.591003	-152.134003	1155.218018	-1.439375	-49.301876	-1.338750
-25.437000	-121.146004	1033.279053	12.595625	-30.638124	-3.675000
105.469002	-106.994003	1052.188965	12.372500	-38.526249	-6.947500
100.100998	-91.256004	1117.703003	14.931875	-12.232500	3.298750
194.346008	-107.970001	1125.755005	-4.134375	-23.358126	6.654375
176.412003	-74.237000	1115.994995	-4.952500	-15.758750	15.281875
102.053001	-53.497002	1014.247009	6.886250	-13.160000	16.598749
231.738998	-79.971001	1089.947998	9.156875	-14.450625	15.951250
262.421997	-97.844002	1062.925049	16.616249	-6.230000	24.565624
195.505005	-69.905998	971.364014	20.501249	5.543125	33.263126
213.072998	-6.588000	1116.604980	24.766874	-7.196875	37.296875
209.229996	-4.514000	1020.895996	18.633125	-11.217500	43.684376
144.753006	111.020004	1095.864990	4.248125	3.338125	32.961250
162.382004	74.786003	957.455994	-7.748125	-18.370625	28.008751
244.427002	48.129002	1079.333984	-0.608125	-7.590625	27.798750
86.010002	60.146000	763.536987	3.644375	5.368125	33.748749
230.763000	-13.359000	1160.402954	4.799375	4.051250	35.065624
212.158005	-11.834001	1008.757019	-5.333125	-3.863125	32.681252
311.770996	3.538000	1178.398071	4.287500	-2.161250	27.011250
375.821014	-47.580002	1186.389038	-0.997500	22.281876	39.130001
251.076004	-59.475002	1014.429993	-10.220000	21.840000	41.860001
196.969009	23.607000	886.452026	-17.465000	3.806250	27.055000
136.518005	9.638000	930.005981	-12.005000	-1.955625	25.812500
176.595001	-65.574997	1035.657959	-13.396250	-10.071250	27.098749
301.828003	-57.278999	1124.718018	-11.020625	-16.428125	23.467501
246.378998	-144.020996	1127.463013	5.735625	16.616249	30.296875
244.854004	-126.148003	1097.878052	7.813750	3.088750	19.971874
286.089996	-50.386002	1252.573975	7.949375	11.506250	9.183125
233.569000	-90.341003	1173.761963	0.415625	28.100624	15.255625
161.100998	11.773000	1220.976074	4.974375	38.709999	6.475000
17.568001	36.417000	1074.149048	2.012500	60.178123	14.328125
-66.856003	59.414001	936.166992	15.671250	72.051872	36.032501
-37.209999	64.598999	998.204041	8.855000	44.668751	35.253750
81.313004	104.859001	1087.141968	5.232500	35.109375	31.928749
33.793999	106.262001	940.070984	9.340625	34.785625	10.294375
70.943001	166.774002	1055.848999	-9.511250	46.851875	8.986250
-190.442001	155.733002	1010.038025	-20.203751	41.750626	12.805625
-53.070000	121.146004	1039.317993	-11.908750	24.880625	-7.691250
-132.736008	203.313004	1104.405029	1.583750	43.946877	-11.383750
-76.250000	224.175003	1127.463013	-10.456250	41.037498	-20.781250
-145.423996	119.071999	981.612000	5.643750	65.611877	-4.908750
-2.135000	84.545998	861.259033	5.923750	44.069374	-6.610625
-365.451019	4.270000	769.697998	5.490625	45.438751	-16.117500
-69.540001	0.854000	709.307983	6.094375	37.974998	-43.470001
-269.619995	-48.922001	531.371033	6.930000	32.169376	-25.396875
-329.765991	2.745000	783.789001	10.653125	34.247501	-51.191875
-253.150009	-9.211000	641.476013	17.701250	20.120625	-59.158749
-338.244995	-33.855000	733.708008	22.434999	21.660625	-48.037498
-290.115997	-4.392000	736.208984	24.110624	14.380625	-47.219376
-340.623993	-53.313999	671.000000	33.656876	-14.713125	-31.342501
-324.459015	-14.579000	758.656982	43.544376	-26.486250	-37.279373
-212.341003	27.450001	827.343018	44.318748	-41.295624	-38.587502
-130.113007	55.510002	933.421997	16.388750	-27.750626	-47.066250
-110.471001	12.993000	796.233032	-11.663750	-82.888748	-26.796875
-21.837999	-163.296997	927.505005	-0.879375	-46.952499	-14.437500
-278.343018	-266.020996	849.729980	8.006250	-39.619999	-13.055000
-221.796005	-189.832001	947.635010	14.017500	-59.399376	-39.672501
-80.764000	-304.329010	1002.656982	21.078751	-48.024376	-44.769375
-146.278000	-197.029999	1123.010010	7.463750	-31.911249	-58.143749
35.380001	-240.401001	1197.186035	-35.678123	-29.916250	-14.420000
-106.994003	-281.149017	877.363037	-18.322500	-18.821251	-18.934999
-56.303001	-291.153015	991.432983	-9.016875	-15.483125	-26.018126
-60.146000	-290.481995	1134.172974	-10.548125	-29.268749	-14.380625
16.958000	-300.912994	1074.820068	-7.831250	-33.057499	-5.757500
90.767998	-302.925995	1078.052979	11.418750	-14.682500	-4.169375
85.522003	-222.100998	1035.474976	16.633751	-17.561251	12.468750
150.365005	-139.994995	1200.296997	26.022499	-36.868126	19.888750
181.658005	-106.872002	1280.695068	41.842499	-12.941250	36.128750
-109.007004	39.345001	1261.785034	24.049376	-8.785000	47.643749
232.044006	-19.337000	1120.813965	-11.401250	-18.344376	45.635624
95.709000	-2.440000	1008.208008	1.793750	-4.462500	42.275623
148.535004	30.378000	1082.384033	21.555626	6.238750	38.311874
127.185005	121.146004	1067.744019	27.794374	-12.241250	41.216873
171.654007	184.708008	1177.056030	23.423750	6.190625	40.801250
118.645004	132.858002	1054.812012	0.538125	5.162500	38.950626
155.001007	91.072998	1057.130005	-8.780625	-11.536875	29.824375
182.389999	4.697000	1100.073975	-8.264375	10.701250	30.620625
118.218002	12.627000	1001.986023	-6.580000	-6.330625	20.763750
153.841995	-74.664001	1067.805054	-11.821250	-37.699375	28.643126
156.709000	-11.590000	1014.856995	8.505000	-21.293125	13.934375
153.110001	7.015000	997.593994	6.628125	12.241250	26.123125
189.527008	11.773000	1087.630005	14.739375	1.207500	28.669374
117.058998	31.415001	998.630981	17.854376	14.621250	20.995625
221.917999	-8.601000	1126.120972	-10.950625	4.265625	24.167500
253.272003	21.472000	1192.123047	-12.184375	18.182501	16.174376
153.903000	42.151001	1104.405029	-22.916250	-3.373125	12.013750
268.095001	78.750999	1351.150024	-22.671249	13.308750	24.368750
177.326996	-16.469999	1073.722046	-4.283125	33.180000	56.791874
92.292999	32.452000	1136.917969	7.721875	66.749374	44.664375
50.691002	73.566002	1020.957031	-0.459375	48.750626	39.589375
5.368000	48.250999	1160.708008	-8.728125	62.116249	36.623123
-30.134001	101.443001	1079.699951	-23.266251	47.350624	34.234375
-33.306000	104.126999	1041.331055	-8.872500	33.053123	39.173752
-97.356003	162.016006	962.213989	-0.021875	36.242500	27.103125
11.834001	141.093002	956.174988	-2.874375	30.296875	16.178749
-90.829002	122.487999	928.237000	12.840625	41.720001	12.652500
-141.031998	162.320999	992.348022	10.425625	64.850624	-5.740000
-224.663010	138.591995	913.109009	19.416250	62.860001	-16.327499
-221.735001	97.783005	848.876038	21.498751	53.226250	-31.543751
-221.307999	90.829002	871.507019	24.758125	21.818125	-22.194374
-126.514000	-17.202000	1018.028992	13.619375	36.268749	-2.611875
-359.778015	118.340004	773.174988	20.361250	36.728127	-24.303125
-275.415009	149.206009	740.052002	40.197498	34.641251	-58.502499
-239.059006	158.294998	787.632019	37.253124	49.205624	-70.275627
-339.098999	161.710999	466.833008	29.636250	1.400000	-54.862499
-393.023010	56.913002	694.241028	29.811251	9.152500	-43.115623
-422.730011	67.832001	891.332031	33.092499	0.315000	-65.235626
-400.282013	30.683001	947.025024	35.739376	-22.802500	-73.027496
-232.531998	-0.610000	817.765991	29.999374	-17.259375	-79.296875
-340.380005	-112.972000	939.278015	9.056250	-18.808125	-60.383751
-301.889008	-85.155998	952.210022	23.948750	-24.010000	-68.372498
-297.252991	-135.175995	771.710999	18.020624	-21.730625	-85.207497
-258.213013	-65.209000	813.007996	-8.951250	-36.894375	-69.116249
-235.033005	-178.852005	939.278015	11.060000	-28.599375	-41.829376
-312.320007	-157.197006	772.565002	27.816250	-28.174999	-39.108124
-188.001999	-183.182999	828.807007	30.970625	-45.285625	-27.759375
-244.732010	-200.445999	797.880005	6.479375	-49.070000	-18.961250
-2.501000	-183.610001	914.450989	-3.521875	-65.183128	-11.370625
-91.195000	-179.766998	1065.547974	21.096251	-31.920000	-4.970000
-94.062004	-179.462006	930.067017	22.487499	-25.248125	-7.673750
-65.391998	-15.067000	1125.266968	-1.299375	-42.546875	24.119375
-180.621002	-103.883003	1135.088013	27.746250	15.754375	25.567499
-318.664001	13.969000	1100.562012	20.750626	24.014376	-7.157500
-104.066002	76.737999	1072.928955	-5.696250	-52.631248	6.256250
-24.521999	5.551000	1005.523987	-0.035000	-36.697498	27.588751
-200.324005	34.038002	1080.187988	-5.101250	-21.796249	26.359375
31.476000	19.825001	1154.425049	-20.330626	-51.471874	28.245001
-63.684002	11.773000	1126.853027	-18.878124	-46.388126	32.532501
49.959000	-1.952000	1171.078003	-7.201250	-26.403126	30.581249
-56.181000	5.673000	1120.692017	0.581875	-25.681250	28.621250
134.382996	11.895000	1157.230957	1.242500	-27.969376	21.533751
149.449997	37.942001	1137.284058	1.995000	-2.279375	33.455624
55.632000	39.650002	1007.293030	-0.490000	-7.030625	35.748123
180.438004	34.647999	1106.844971	-3.780000	-2.213750	27.426874
59.109001	6.405000	947.085999	-1.338750	0.980000	31.806250
219.722000	-58.621002	1167.234985	0.083125	-16.130625	21.433125
126.636002	16.226000	1023.335999	10.692500	-9.296875	23.025625
291.031006	46.116001	1159.122070	9.852500	-1.351875	22.767500
175.009003	96.684998	1072.318970	0.245000	-2.756250	33.862499
140.056000	62.341999	962.945984	4.891250	2.314375	35.595001
213.134003	36.295002	1105.380981	2.428125	16.616249	36.754375
52.399002	15.067000	1049.749023	-13.807500	8.662500	42.756874
229.298996	-94.183998	1093.119995	-22.001875	-35.052502	28.459375
270.046997	-110.776001	1166.686035	-11.860625	-14.525000	31.377501
166.469009	-75.701004	1086.166016	8.715000	20.628124	30.069374
122.854004	-0.854000	1118.374023	11.431875	13.741875	26.333124
101.992004	19.093000	1158.695068	5.731250	28.726250	23.996876
63.989002	26.535000	1199.442993	-19.118750	10.727500	22.233749
101.808998	28.670000	1128.438965	-9.712500	14.905625	25.519375
142.557007	-25.559000	1304.729004	-6.160000	30.708124	26.057501
127.001999	68.076004	1291.858032	-0.039375	41.317501	35.896873
29.158001	35.257999	1048.895020	12.188750	48.020000	42.035000
50.325001	79.910004	1075.796021	17.123751	51.594376	36.154999
-30.866001	128.222000	1047.675049	3.491250	54.411877	37.314377
-27.389000	184.037003	909.143982	-6.234375	47.403126	31.390625
-137.005997	179.096008	968.802002	2.038750	64.421875	19.140625
-127.551003	261.019012	902.434021	0.262500	46.248123	17.202499
-119.743004	231.800003	978.806030	2.712500	46.204376	11.506250
-146.583008	309.757996	1030.473022	-1.618750	49.844376	-0.726250
-229.542999	267.485016	924.638000	0.096250	44.196251	5.355000
-226.615005	158.234009	866.017029	3.465000	54.941250	2.301250
-354.410004	129.746994	830.453979	3.850000	40.941250	-5.066250
-240.156998	65.026001	751.276001	18.751249	26.665625	-15.036875
-298.595001	64.538002	941.901001	36.373749	52.543751	-18.615625
-248.514008	-9.516000	872.544006	19.718124	11.300625	-35.695625
-405.406006	81.862000	790.315979	23.598749	20.794374	-55.755001
-334.829010	109.312004	643.976990	28.398125	22.496250	-62.426876
-405.833008	50.935001	650.077026	29.553125	12.289375	-52.500000
-350.322998	107.482002	712.479980	25.576250	0.363125	-55.199375
-344.101013	25.986000	750.483032	22.321251	-13.728750	-46.593750
-406.748016	5.978000	835.028992	16.756250	-9.800000	-46.011875
-375.638000	28.243000	844.789001	11.685625	-19.153749	-50.211876
-300.242004	3.721000	777.872009	19.569374	-28.726250	-38.381874
-390.399994	47.091999	907.130981	29.032499	-21.139999	-34.947498
-253.943008	-42.028999	784.033020	37.944374	-36.220627	-13.540625
-344.894012	6.466000	994.239014	29.483126	-26.661249	-24.075624
-140.361008	-6.283000	758.840027	30.616249	-41.566875	-31.500000
-258.822998	-36.722000	967.765015	33.381248	-39.248123	-28.691250
-241.194000	58.804001	977.525024	7.376250	-32.563126	-44.393124
-235.643005	-42.028999	827.953003	-3.705625	-56.599377	-31.920000
-275.292999	28.853001	923.113037	-0.546875	-49.923126	-32.077499
-208.315002	-56.669003	895.419006	6.085625	-41.260624	-44.226875
-89.059998	-46.542999	936.044983	-11.659375	-69.798752	-28.406876
-43.675999	-113.521004	1066.707031	-6.479375	-24.001249	-31.688126
24.217001	-124.257004	1091.107056	-17.211250	-53.396873	-8.264375
-132.248001	-189.710007	1125.023071	-20.155624	-26.936874	2.384375
-131.272003	-197.945007	1070.000977	-24.955000	-27.549376	-2.388750
-44.469002	-180.011002	1111.053955	-14.599375	-52.823750	-6.085625
-14.030000	-225.089996	1170.223999	4.974375	-43.627499	-2.870000
4.697000	-118.340004	1079.212036	15.675625	-41.938751	12.783750
-33.733002	12.993000	1077.869995	22.719376	-41.278126	8.470000
172.324997	-133.285004	1187.914062	12.985000	-30.165625	19.433750
131.820999	-72.468002	1111.541992	5.026875	-37.126251	28.507500
154.757004	-40.931000	1107.821045	3.701250	-17.158751	33.853748
123.098000	27.755001	1107.394043	6.125000	-20.623751	27.593124
261.080017	-6.344000	1061.521973	1.583750	-11.440625	34.868752
293.044006	2.867000	1100.013062	1.986250	-11.410000	49.918751
221.369003	0.854000	1087.812988	16.625000	2.756250	61.713749
166.469009	10.309000	1088.239990	9.174375	13.151250	59.416874
167.872009	76.311005	1258.186035	-5.534375	-5.460000	45.705624
217.953003	27.572001	1122.704956	-25.326876	-14.402500	45.679375
146.583008	47.275002	1230.858032	-12.971875	-9.585625	30.524376
239.425003	-24.521999	1062.498047	-14.293125	4.672500	34.973751
147.498001	48.922001	965.020020	2.458750	11.567500	29.745625
154.147003	-5.185000	976.609985	-2.226875	23.633751	28.153126
170.556000	-14.335000	1021.505981	1.557500	19.945625	19.560625
69.600998	54.961002	881.083984	-0.665000	14.840000	16.349375
204.837997	31.171000	1117.581055	-5.372500	17.854376	14.218750
92.964005	-10.919000	967.277039	-11.493125	5.871250	30.091249
177.936996	-40.625999	1154.119995	-9.485000	6.378750	16.734375
145.302002	-60.268002	1048.041016	-8.168125	13.011250	23.703751
64.538002	-69.357002	1042.428955	-4.891250	9.957500	19.127501
32.208000	-67.466003	985.393982	-17.263750	17.666250	28.853125
138.591995	-29.829000	1190.659058	1.268750	22.421875	18.488750
77.714005	6.893000	1069.513062	8.592500	39.681252	28.174999
57.462002	23.668001	1091.107056	6.623750	29.233749	28.485624
27.938000	104.737000	1084.152954	13.680625	50.741249	28.980000
-167.078995	11.712000	974.780029	-3.338125	33.665627	21.866249
-53.985001	118.096001	1162.781982	2.546250	20.238750	0.118125
-122.670998	107.909004	1085.921997	11.742500	39.965626	12.648125
-63.318001	112.056999	1079.639038	15.780625	48.597500	0.271250
-87.961998	140.666000	978.562012	14.306250	53.388126	-7.380625
-137.615997	180.132996	906.520996	8.159375	63.713123	-4.755625
-258.213013	95.709000	826.184021	4.550000	45.495625	-13.168750
-203.313004	103.151001	927.260986	13.658750	44.638126	-24.613750
-266.936005	61.549000	828.929016	12.744375	39.226250	-13.531875
-249.246002	23.241001	877.484985	5.626250	30.922501	-30.170000
-264.130005	67.099998	917.013000	7.726250	23.406250	-38.263748
-282.063995	51.972000	847.106995	10.644375	22.019375	-26.320000
-302.925995	45.201000	936.838013	2.931250	24.552500	-23.104376
-303.291992	47.091999	848.205017	14.879375	12.687500	-17.521875
-345.869995	64.781998	865.712036	13.951875	16.454374	-28.280001
-297.679993	30.866001	774.700012	13.978125	-1.710625	-25.046875
-406.015991	58.681999	833.626038	12.306875	11.090625	-27.540625
-315.003998	49.227001	747.799011	14.848750	8.229375	-29.798124
-299.631989	11.895000	821.426025	13.059375	-6.330625	-21.875000
-344.040009	46.665001	795.501038	20.461876	-4.300625	-26.337500
-277.855011	-38.125000	739.625000	22.041250	-17.968124	-24.351250
-313.662018	-12.322001	791.596985	15.973125	-20.260626	-31.898125
-292.373016	-85.217003	761.645996	20.702499	-26.731251	-32.759998
-230.214005	-74.481003	834.174988	20.129375	-40.311249	-47.547501
-180.011002	-162.809006	903.837036	24.119375	-42.910000	-37.935623
-181.048004	-121.877998	971.303040	16.826250	-34.938751	-36.487499
-193.186996	-118.278999	935.496033	18.865000	-24.434376	-26.639376
-251.747009	-111.569000	1020.468994	5.368125	-18.265625	-21.647499
-237.046005	-76.067001	925.247986	0.061250	-36.693127	-17.998751
-145.790009	-110.531998	1012.905029	-1.356250	-31.049376	-6.230000
-360.998016	-104.249001	1043.343994	-11.143125	-16.069374	-16.633751
-162.503998	-119.438004	1068.781006	-10.928750	-33.831875	-19.035625
-180.438004	-120.414001	1192.916016	-9.581250	-37.760624	-9.493750
-55.937000	-62.830002	1148.020020	-6.724375	-45.473751	-14.074375
-59.414001	-96.380005	1068.842041	-8.841875	-36.889999	-4.970000
23.363001	-140.666000	1074.026978	-11.711875	-34.050625	3.495625
53.192001	-163.541000	1101.781982	-1.500625	-24.985624	12.048750
-96.929001	-128.649002	978.928040	1.640625	-30.808750	14.275625
-22.082001	-34.770000	1163.391968	13.146875	-35.853127	1.487500
120.841003	-80.520004	1176.446045	5.757500	-28.170626	13.720000
20.313000	-99.430000	1081.895996	-0.634375	-11.235000	27.094376
71.187004	-70.638000	1165.893066	19.376875	-6.873125	18.357500
6.222000	9.150001	1098.609985	18.265625	-7.796250	32.348751
78.445999	53.070000	1079.456055	23.121876	11.550000	24.736250
-9.577000	76.311005	945.439026	6.072500	-13.164375	31.622499
50.020000	67.771004	1047.796997	2.795625	-13.566875	21.555626
112.849998	44.103001	1029.192017	-11.274375	-7.984375	21.761250
106.811005	40.504002	1005.585022	-7.188125	-29.951250	17.408125
128.770996	59.719002	1093.302979	0.857500	-2.756250	13.593125
132.553009	43.431999	1062.254028	-14.048125	1.583750	19.652500
159.453995	-24.278000	1126.730957	-14.533750	-25.681250	21.673750
154.208008	-41.236000	1189.744019	-18.803749	6.396250	22.478750
143.472000	-116.083000	1137.344971	-15.833125	-20.978125	18.580626
140.056000	-116.388000	1166.930054	-23.213751	-4.646250	16.095625
135.542007	-89.914001	904.020020	-32.475624	-25.278749	6.553750
200.994995	-95.098999	908.595032	0.533750	-31.928749	25.186874
278.282013	-109.312004	1106.417969	10.241875	10.460625	34.895000
171.897995	-34.038002	1093.425049	1.058750	27.514376	35.450626
113.033005	-110.653999	1010.830994	9.331875	15.981875	41.076874
137.432999	-94.306000	1115.079956	31.338125	24.381874	36.465626
5.185000	-66.246002	1117.703003	25.795000	31.355625	34.930000
133.895004	45.688999	1223.050049	12.140625	19.875626	26.385626
35.319000	80.215004	1143.505981	-9.108750	31.513124	34.650002
151.707001	89.364998	1238.727051	-4.983125	23.069374	42.297501
-66.246002	67.649002	1078.541016	11.506250	55.956249	59.613750
-65.758003	128.953995	1158.145996	18.948126	74.834373	36.224998
50.202999	191.540009	1158.634033	1.391250	55.199375	38.119373
-115.229004	186.660004	1011.197021	-7.870625	54.626251	42.035000
29.707001	174.887009	1051.822998	7.371875	62.295624	23.379999
-96.501999	208.803009	927.809998	1.185625	61.162498	34.339375
-170.983002	141.093002	965.630005	3.535000	54.928123	21.113750
-330.010010	214.598007	867.908020	7.586250	49.441875	-10.298750
-169.641006	183.731995	905.544983	5.788125	36.224998	-12.740000
-400.282013	273.524017	764.085999	16.708124	38.583126	-16.576876
-66.306999	202.824997	892.856995	13.575625	38.530624	-17.758125
-205.692001	119.499001	745.725037	10.255000	17.815001	-4.291875
-336.537018	183.244003	858.453003	19.477501	39.676876	-34.492500
-139.080002	122.610001	800.991028	16.073750	16.148125	-28.643126
-375.028015	80.459000	822.463013	8.417500	31.920000	-19.761875
-422.851990	93.573997	779.518982	14.175000	32.392502	-41.641251
-376.735992	-5.002000	853.207031	24.298750	11.077500	-39.528126
-398.024994	-25.375999	733.403015	17.368750	8.575000	-52.744999
-451.826996	-29.158001	654.895996	12.219375	-17.578751	-54.468750
-371.673004	-3.660000	680.088989	18.554375	-15.176875	-60.445000
-370.269989	-35.380001	543.570984	22.636250	-34.912498	-57.535625
-235.337997	-38.552002	776.408020	21.100624	-43.627499	-45.679375
-289.567017	-111.203003	865.468018	27.243126	-41.234375	-39.431873
-302.437988	-72.406998	794.647034	27.973749	-47.123123	-35.266876
-213.865997	-86.620003	914.877991	29.408751	-53.571877	-43.163750
-153.903000	-64.416000	942.755005	15.312500	-53.965626	-26.910625
-178.181000	-137.432999	960.262024	8.553125	-53.904373	-21.949375
-188.794998	-76.494003	932.507019	-1.211875	-44.926876	-23.668751
-106.079002	-165.737000	988.749023	-15.614375	-56.988750	-25.414375
-130.479004	-148.839996	1089.155029	-18.055626	-55.501251	-19.678749
-90.829002	-132.858002	1006.134033	-17.543751	-54.775002	-23.393126
-9.577000	-211.669998	1203.407959	-17.618126	-48.063751	-13.601875
-20.191000	-208.193008	1187.426025	-23.966249	-36.588123	-12.053125
18.605000	-160.186005	1033.706055	-12.425000	-29.461250	-14.000000
36.234001	-93.878998	1204.872070	3.801875	-21.774376	-12.175625
70.760002	-107.848000	1130.329956	0.936250	-13.470625	8.666875
20.618000	-76.250000	1152.838989	9.861250	-10.640000	8.421875
85.827003	-135.664001	1052.921021	6.728750	-12.293750	16.843750
38.552002	-65.941002	1094.279053	18.392500	-19.910625	19.258751
-28.426001	-3.660000	1023.640991	20.046249	-17.806250	12.648125
93.452003	-12.017000	1097.511963	15.723750	-9.769375	10.224375
95.831001	-13.298000	1068.354004	16.603125	-12.018125	16.555000
118.401001	-39.223000	1009.244995	13.951875	-3.132500	23.458750
155.488998	-5.185000	1143.322998	17.758125	-7.148750	20.650000
72.101997	15.067000	1074.515015	-4.480000	-6.107500	25.169374
132.858002	45.383999	1089.582031	-10.626875	-13.868750	22.474375
70.760002	16.226000	1054.690063	-19.320000	-9.108750	24.688126
186.354996	-17.934000	1100.806030	-9.559375	-0.800625	16.817499
156.037994	-27.145000	1047.919067	-2.765000	19.075001	29.478750
119.987000	-42.090000	1149.178955	-5.783750	22.391251	31.342501
146.643997	-12.810000	1055.300049	-5.061875	4.865000	26.604376
102.113998	13.664001	1030.838989	-6.540625	-10.832500	27.610624
195.809998	-17.934000	1080.614990	-5.031250	0.966875	28.774376
86.986000	-46.604000	1062.010010	0.735000	10.731875	33.429375
117.181000	-105.224998	1140.822021	-8.701875	14.271250	33.341873
64.111000	-133.162994	922.807983	-0.796250	6.540625	32.029373
140.300003	-90.036003	1070.977051	18.786249	7.691250	23.283751
73.321999	11.041000	1113.005981	11.777500	2.874375	18.563126
25.254000	33.489002	1133.928955	-3.521875	6.746250	28.783125
80.946999	25.925001	1165.832031	-3.128125	3.298750	24.692499
71.918999	44.591000	1206.152954	-16.918125	-5.403125	18.593750
60.329002	47.091999	1262.151001	-14.297500	4.886875	26.175625
115.350998	26.230000	1109.223999	-7.756875	2.458750	25.681250
26.230000	22.082001	1019.981018	-22.504999	1.290625	13.160000
117.973999	-13.176001	903.958984	-24.377501	-24.858749	3.290000
25.132000	-1.586000	1012.843994	8.706250	19.578125	28.848749
79.117004	-29.463001	1139.906982	17.053749	48.155624	35.586250
39.589001	6.893000	1082.322998	1.583750	41.426876	36.553123
-130.906006	33.184002	1071.708984	-1.330000	43.417500	28.634375
45.932999	-59.048000	1143.445068	-4.484375	34.365623	24.447500
-35.380001	50.264000	1131.854980	1.806875	45.001251	32.926250
-101.382004	35.868000	1069.086060	14.385000	51.611874	26.197500
-131.210999	181.475006	1044.442017	12.193125	61.919376	20.208124
-60.695000	132.858002	916.098022	10.132500	49.700001	3.723125
-182.085007	229.298996	895.174988	1.662500	48.947498	-15.767500
-181.292007	173.789001	853.572998	9.651250	52.097500	-18.165001
-259.860016	203.617996	859.673035	19.180000	41.055000	-23.546249
-279.623993	179.766998	860.466003	18.519375	40.604374	-45.141251
-130.235001	103.090004	780.312012	9.804375	26.573750	-31.219999
-383.751007	51.972000	749.202026	17.430000	35.310623	-40.669998
-149.022995	-31.537001	755.484985	15.806875	23.060625	-51.537498
-295.545013	9.577000	734.013000	12.866875	14.910000	-42.367500
-283.162018	-21.410999	747.067017	46.764374	15.798125	-68.661247
-335.317017	-45.445000	739.259033	41.278126	3.644375	-65.432503
-357.277008	-80.886002	805.505005	30.620625	-23.940001	-53.051250
-294.264008	-82.594002	759.572021	43.798126	-34.177502	-66.464996
-308.660004	-48.494999	757.254028	46.742500	-27.978125	-65.454376
-302.621002	-13.115000	773.358032	51.817501	-52.031876	-54.586876
-228.262009	10.675000	734.135010	78.408752	-43.189999	-58.764999
-178.912994	-19.398001	820.267029	73.657501	-26.018126	-48.133751
-168.908997	25.620001	894.260010	46.025002	-53.939377	-10.723125
-280.234009	-72.895004	837.895996	20.418125	-49.774376	1.557500
-67.954002	-96.929001	979.903992	16.060625	-63.686874	-5.880000
-113.094002	-107.787003	1052.615967	16.913750	-41.125000	-1.190000
-206.912003	-35.929001	1075.003052	-15.019375	-41.085625	5.731250
-66.489998	-20.130001	1044.442017	-17.613750	-53.261250	1.435000
-92.170998	-20.130001	1100.013062	-12.258750	-35.039375	12.818750
-41.053001	73.809998	1068.842041	-14.280000	-28.105000	3.084375
207.400009	-22.814001	1197.490967	-9.625000	-9.629375	16.104376
41.174999	33.000999	1087.264038	-16.397499	-7.096250	28.813749
-32.146999	45.018002	1188.584961	-11.375000	-3.285625	24.994375
-10.126000	59.353001	1097.145996	-25.777500	-29.859375	32.440624
93.452003	1.525000	1128.622070	-7.070000	-29.295000	37.126251
-48.312000	71.918999	1042.062988	3.010000	-25.287500	38.727501
124.195999	66.429001	1266.786987	11.567500	-18.484375	22.938126
76.372002	21.472000	1099.646973	7.848750	13.479375	38.500000
61.854000	22.570000	1122.461060	7.008750	-21.056875	42.844376
113.887001	83.204002	1236.165039	4.878125	-1.907500	32.720627
2.440000	111.874001	1051.884033	-16.078125	4.396875	40.963123
96.014000	34.403999	1214.327026	-23.143749	-5.210625	46.287498
161.406006	-20.069000	1022.177002	-19.271875	-3.123750	50.084999
89.853004	-25.437000	1335.473022	-21.634375	8.509375	49.223125
43.920002	-9.394000	1064.389038	-32.978748	20.068125	27.142500
128.527008	-24.766001	1016.138000	-25.475624	-1.859375	24.320625
84.729004	19.520000	951.478027	-5.796875	9.734375	29.365000
53.070000	20.862000	1028.459961	-4.869375	18.799376	25.003124
97.356003	-61.854000	1077.015991	-20.103125	-6.195000	31.639999
140.421997	9.089000	1091.656006	4.156250	-1.981875	14.008750
40.320999	48.373001	1108.979980	-4.445000	4.536875	17.154375
232.593002	-33.549999	1209.447021	1.028125	-12.201875	18.221874
133.406998	101.625999	1072.624023	3.587500	24.298750	24.447500
90.707001	81.739998	1023.824036	7.052500	32.090626	40.075001
78.507004	42.517002	1092.448975	10.609375	26.726875	43.426250
69.845001	28.304001	1066.218994	12.468750	46.178123	30.244375
7.442000	47.031002	891.332031	20.418125	30.725624	29.798124
-41.358002	38.003002	1141.310059	13.890625	55.960625	23.568125
-63.135002	64.416000	980.330994	8.793750	48.851250	17.377501
-138.531006	131.576996	971.303040	17.867500	47.923752	11.738125
-186.538010	89.121002	1024.250977	5.516875	33.569374	6.238750
-107.360001	121.024002	1007.903015	-0.468125	33.499374	5.748750
-73.504997	119.316002	991.981995	9.100000	43.828751	9.218125
-151.035995	177.143997	839.359985	3.661875	35.651875	10.801875
-349.591003	249.367996	841.434021	20.046249	38.871876	0.840000
-305.122009	184.464005	970.083008	24.587500	45.316250	-19.569374
-329.705017	229.360001	874.007996	10.023125	14.354375	-24.775625
-277.244995	148.229996	1016.199036	24.408125	17.115000	-23.183125
-271.998993	113.826004	1123.742065	10.902500	18.738125	-32.978748
-232.959000	127.978004	973.864990	9.856875	21.078751	-26.761875
-323.544006	74.237000	896.822021	17.184999	51.703751	-31.193750
-294.507996	133.346008	796.354980	7.398125	28.525000	-27.203751
-357.338013	113.704002	867.968994	14.717500	44.095627	-30.314375
-390.765991	133.285004	688.872986	14.481250	30.515625	-30.555000
-408.089996	121.939003	652.151001	31.858749	10.578750	-30.309999
-433.404999	58.560001	702.781006	28.048124	9.086875	-50.994999
-372.954010	107.360001	567.117004	22.203125	-5.630625	-56.271252
-431.087006	103.944000	653.981018	27.090000	-13.269375	-60.672501
-421.022003	42.821999	709.856995	32.965626	-14.503125	-67.086250
-299.998016	53.131001	582.184021	37.213749	-43.863750	-66.421249
-232.531998	-19.032000	785.436035	39.103748	-47.709373	-49.498749
-268.765991	-12.871000	738.221985	31.570000	-63.616875	-39.060001
-203.069000	47.458000	876.203979	44.091251	-51.751877	-47.394375
-263.153992	34.647999	914.817017	32.108124	-53.265625	-41.658749
-98.392998	-114.497002	1018.090027	10.390625	-48.361252	-19.219376
-129.930008	-93.757004	1108.004028	-6.960625	-33.459999	-16.467501
-240.706009	-82.228004	933.788025	-10.447500	-36.413124	-10.924375
-205.875000	-178.119995	1084.579956	-15.176875	-32.178123	-27.365625
-231.128998	-31.781000	948.489014	-15.750000	-53.668125	-30.896250
5.307000	-156.831009	1185.046997	-24.574375	-63.135624	-12.442500
-77.409004	-218.746002	1018.639038	-22.312500	-50.666874	-7.511875
-7.015000	-261.019012	1237.750977	-25.340000	-45.574375	2.926875
-50.691002	-190.380997	1190.719971	-11.305000	-22.080626	-5.293750
2.989000	-96.014000	1123.985962	-5.490625	-36.640625	-4.134375
144.326004	-64.903999	1292.346069	10.591875	-32.869373	10.871875
46.299000	-181.962997	1176.385010	8.995000	-8.417500	40.162498
-29.524000	-96.319000	1027.422974	3.053750	-25.235001	30.957500
-21.167000	-44.713001	1119.838013	15.478750	-14.761250	11.042500
74.419998	-56.181000	1096.718994	9.489375	-11.760000	28.061251
44.774002	36.660999	1137.711060	24.276875	16.511250	26.333124
24.644001	61.183002	1098.915039	16.730000	10.031875	29.242500
74.114998	86.558998	1098.365967	8.649375	-24.797501	29.601250
112.056999	83.326004	1119.166992	-8.868125	4.939375	29.898750
104.371002	75.701004	1119.593994	-17.806250	2.804375	31.674999
88.816002	90.036003	1105.442017	-10.036250	-12.193125	34.956249
150.548004	41.602001	1231.346069	-3.766875	-6.934375	30.926874
106.506004	47.275002	1163.575073	-1.750000	2.340625	32.353127
85.155998	-14.640000	1189.865967	5.158125	-9.353750	36.789375
68.137001	-63.928001	1027.301025	8.067500	11.646250	38.228748
81.984001	2.501000	986.309021	18.602501	-2.629375	35.752499
162.686996	10.553000	1044.807983	21.258125	12.197500	31.040625
30.683001	35.563000	939.460999	1.973125	6.628125	37.555000
129.990997	91.317001	985.393982	-2.712500	-9.030000	29.303749
151.951004	65.331001	1070.244995	-1.955625	12.110000	36.255627
104.798004	103.395004	1082.261963	-14.910000	13.453125	41.724377
140.361008	120.779999	1136.613037	-16.817499	17.626875	41.496876
92.354004	127.429001	1102.391968	-23.371250	17.386250	45.303123
84.973000	196.359009	1225.612061	-11.908750	43.119999	35.551250
31.415001	187.636002	1168.821045	-8.518125	54.954376	37.760624
-113.399002	234.240005	1111.237061	-10.408125	50.400002	32.392502
-48.007000	190.625000	1041.087036	-21.490000	37.563751	20.645624
-44.347000	204.472000	1139.906982	-8.601250	59.268124	25.418751
-142.130005	215.451996	1020.591003	6.046250	70.949371	14.161875
-72.406998	215.574005	978.622986	12.499375	53.353127	0.844375
-200.568008	217.281998	969.838989	20.334999	65.463127	-4.620000
-87.413002	126.941002	886.635010	16.078125	45.123749	-8.688750
-338.183990	208.803009	837.895996	13.510000	27.448750	-7.721875
-115.960999	58.072002	883.036011	34.536251	13.186250	-14.196875
-385.825012	83.752998	785.314026	20.505625	34.085625	-42.490002
-235.216003	47.458000	855.403015	22.951250	41.138126	-68.407501
-186.538010	69.112999	692.655029	16.135000	16.279375	-61.350624
-314.272003	7.564000	724.192017	29.238125	45.460625	-56.695625
-277.855011	16.775000	650.809021	28.708750	14.840000	-51.725624
-329.826996	-8.967000	653.554016	32.068748	6.247500	-48.400623
-422.119995	-17.995001	661.301025	43.601250	17.254999	-48.838123
-320.433014	-14.457000	690.398010	43.833126	-21.433125	-40.171249
-299.692993	-52.154999	712.785034	41.326248	-28.643126	-42.984375
-253.699005	-82.044998	741.088989	23.441250	-54.206249	-27.986876
-211.182007	-104.981003	723.825989	7.319375	-50.382500	-37.436874
-222.100998	-156.770004	844.484009	-5.075000	-61.350624	-28.573126
-304.024017	-264.130005	942.510986	-2.699375	-28.398125	-23.861250
-273.768005	-228.811005	893.040039	-20.216875	-49.476875	-22.872499
-252.600998	-351.115997	956.114014	-33.127499	-65.178749	-10.101875
-333.425995	-272.182007	1060.180054	-18.248125	-40.293751	-13.225625
-183.000000	-259.738007	977.220032	-24.202499	-52.849998	-15.938125
-91.134003	-243.145996	1132.281982	-21.905624	-40.446877	-4.243750
-82.472000	-197.701004	977.890991	13.632500	-34.715626	5.936875
-109.738998	-185.074005	1154.425049	11.751250	-32.943748	23.314375
-93.330002	-174.216003	1144.542969	16.476250	-31.898125	20.711250
-16.958000	-45.688999	1046.394043	15.645000	-51.966251	20.930000
41.236000	-59.535999	1152.534058	40.901875	-26.770624	28.866249
14.213000	-37.393002	1123.742065	32.633125	-35.966873	36.846249
66.063004	9.272000	1268.373047	19.066250	-46.584999	37.187500
104.371002	20.862000	1233.176025	0.853125	-5.700625	61.228127
-21.716000	90.462997	1140.943970	-6.125000	-30.480625	53.668125
69.052002	54.900002	1099.402954	-15.863750	7.433125	45.946251
54.411999	141.093002	1163.758057	-6.794375	9.970625	38.635624
52.704002	102.053001	1077.198975	-10.745000	5.831875	34.846874
184.037003	21.716000	1206.396973	-16.366875	-0.835625	29.548750
67.404999	-22.021000	1085.373047	-22.150625	6.741875	35.091873
111.508003	-12.017000	1048.651001	-10.946250	9.782500	24.377501
108.702003	-18.726999	1121.667969	6.610625	19.123125	25.746876
6.649000	-58.376999	1058.716064	4.090625	20.273750	30.012501
83.814003	-14.762000	1083.542969	6.912500	19.783751	9.318750
-4.453000	5.551000	1029.619019	7.284375	22.544374	18.261250
23.790001	11.712000	1086.348999	5.040000	22.526875	8.789375
-78.873001	30.073000	991.859985	4.348750	11.856250	25.291876
121.634003	-16.469999	1176.202026	10.040625	10.228750	13.129375
-32.574001	34.342999	1018.090027	5.267500	16.979376	27.811874
-85.460999	68.625000	1051.030029	5.425000	12.591250	29.828751
7.686000	41.418999	1135.515015	-0.236250	11.103750	24.937500
-115.290001	97.417000	1040.416016	-13.260625	-0.818125	29.955626
-48.983002	85.460999	1097.511963	-5.556250	-6.181875	21.853125
24.644001	67.832001	1157.780029	-15.334375	0.411250	22.487499
2.135000	78.628998	1124.046997	-2.992500	17.718750	15.378125
-18.300001	75.029999	1078.479980	-9.778125	19.166876	26.656876
-4.148000	105.286003	992.165039	4.309375	30.467501	14.568750
-33.306000	120.536003	955.992004	9.935625	40.551876	17.998751
-50.996002	142.190994	1042.428955	2.585625	53.668125	11.777500
-2.806000	117.913002	896.273010	6.138125	52.788750	20.641251
-204.472000	143.350006	923.296021	11.913125	40.451248	16.918125
-109.922005	95.281998	971.608032	1.277500	50.570625	19.696251
-370.819000	113.399002	817.278015	9.213750	37.296875	12.582500
-360.144012	44.347000	1087.812988	24.171875	52.876251	-13.658750
-363.498993	105.774002	1052.005981	17.206875	31.745001	-26.613125
-333.548004	137.615997	1093.485962	19.193125	43.767502	-35.236252
-191.783997	152.012009	862.418030	16.773750	41.308750	-29.299376
-394.182007	156.709000	903.776001	16.878750	56.704376	-31.937500
-312.015015	213.500000	822.402039	10.915625	38.622501	-51.401875
-323.483002	174.277008	653.065979	15.728125	17.565624	-31.863125
-416.630005	57.278999	749.263000	28.533751	28.271250	-44.515625
-229.970001	54.290001	723.277039	12.499375	11.418750	-50.728127
-308.171997	57.401001	654.835022	14.393750	1.233750	-36.723751
-344.101013	40.199001	593.408020	18.326876	-7.402500	-50.994999
-347.821991	-4.636000	571.509033	16.235624	-16.047501	-45.574375
-412.238007	5.856000	612.135010	27.138124	-16.524376	-49.074375
-302.437988	31.415001	663.009033	28.328125	-53.431873	-51.476250
-287.309998	-108.580002	848.754028	46.366249	-38.368752	-46.965626
-379.420013	16.226000	727.242004	54.271873	-32.790627	-61.687500
-203.191010	-200.324005	818.254028	32.195625	-67.821251	-38.128124
-197.212997	-207.826996	910.364014	16.314375	-78.190002	-34.466251
-194.163010	-183.305008	935.312988	19.385626	-70.818123	-45.893749
-130.906006	-211.425995	1150.703979	13.798750	-88.913124	-33.543125
-152.317001	-160.490997	988.627014	-37.432499	-75.193123	-7.336875
-145.729004	-200.507004	1169.004028	-27.693750	-71.071877	-7.170625
-70.028000	-290.299011	1193.464966	2.870000	-52.587502	-18.514999
-62.646999	-141.214996	1129.598022	-2.257500	-51.200626	-6.068125
-55.327000	-151.828995	1248.914062	4.497500	-36.233749	-8.566250
-32.390999	-211.425995	1155.218018	1.168125	-15.356250	-3.915625
-28.243000	-159.880997	1034.987061	1.010625	-24.171875	11.755625
29.524000	-134.992996	1184.619995	15.566250	-27.960625	20.549376
-27.511000	-82.654999	1093.852051	7.223125	-13.864375	29.111250
34.587002	18.056000	1226.466064	15.338750	-9.454375	35.113750
20.374001	27.999001	1095.499023	1.417500	-10.771250	26.801250
162.016006	-23.912001	1220.244019	-11.615625	-32.440624	22.028126
65.636002	-36.539001	981.184998	-8.548750	-19.468750	22.211876
198.921005	-50.751999	964.653992	24.753750	-10.618125	8.054375
140.971008	18.605000	1057.495972	28.017500	25.900000	15.080625
345.565002	-51.910999	1006.866028	11.611250	-5.390000	4.812500
255.651001	58.072002	1213.961060	33.582500	-5.385625	8.925000
-15.799000	207.888000	1296.555054	0.078750	42.450626	18.821251
165.126999	3.477000	1175.896973	-52.937500	-47.363750	55.278126
70.760002	-3.233000	1044.380981	-33.171249	-9.826250	50.570625
148.718002	-63.440002	1200.114014	-15.841875	3.311875	43.946877
218.929001	-86.437004	1131.610962	-6.090000	14.070000	36.955624
160.125000	-91.134003	1031.937012	1.701875	39.794998	46.305000
26.047001	-98.514999	848.937012	-14.175000	23.563749	59.421249
48.861000	-72.346001	1035.047974	-0.599375	9.668750	35.542500
106.872002	-20.434999	1077.015991	13.286875	18.860624	26.630625
234.667007	139.141006	1308.572021	18.357500	13.724375	24.915625
168.725998	188.429001	1258.307983	9.800000	23.506874	32.991875
-16.226000	225.151001	1206.946045	-9.541875	45.727501	29.369375
83.752998	181.719009	1119.289062	-11.475625	31.390625	20.011250
59.109001	121.024002	1158.451050	-29.102501	41.864376	39.536877
-66.368004	112.911003	1021.140015	-26.565001	31.443125	41.164375
68.685997	121.329002	1039.867065	-13.173125	48.641251	35.153126
-60.024002	123.220001	864.492004	-12.215000	67.891251	22.596874
-91.012001	118.218002	926.468018	-13.698125	70.297501	9.296875
-173.117996	168.298996	950.684998	-5.862500	86.135002	1.548750
-216.854996	75.884003	787.937012	-5.604375	77.888123	-8.133125
-88.206001	51.423000	746.518005	3.832500	41.746250	-29.430626
-347.028992	-0.671000	773.968018	8.067500	53.016251	-29.824375
-181.658005	-57.035000	809.653015	36.373749	49.503124	-53.471249
-246.561996	-108.458000	720.104980	31.670626	16.751875	-52.005627
-209.779007	-99.857002	934.153992	37.725624	27.741875	-57.382500
-289.872009	-93.147003	762.622009	46.462502	25.611250	-53.672501
-337.817993	-50.874001	746.884033	50.373749	8.876875	-45.044998
-343.002991	-111.508003	710.101013	49.560001	10.583125	-32.808125
-340.563019	-70.272003	675.270020	44.616249	-11.322500	-44.152500
-306.524994	-107.665001	712.479980	32.633125	-17.482500	-41.969376
-345.076996	-156.770004	726.876038	32.147499	-42.831249	-47.866875
-159.820007	-136.457001	895.479980	46.160625	-28.406876	-68.993752
-327.143005	-38.612999	836.614990	66.154373	-17.745001	-66.823753
-160.673996	-98.087997	923.113037	76.216873	-37.572498	-42.686874
-193.369995	-51.118000	932.140991	49.398125	-48.615002	-11.641875
-370.087006	18.605000	836.065979	26.783751	-50.465626	-2.218125
