A_X [mg]	A_Y [mg]	A_Z [mg]	G_X [dps]	G_Y [dps]	G_Z [dps]
-51.484001	0.427000	989.481018	-2.301250	10.211250	-0.332500
-94.488998	12.627000	912.316040	-21.472500	5.516875	1.763125
-92.964005	-28.059999	833.809021	-14.682500	25.173750	1.128750
-90.889999	-15.555000	866.566040	-1.671250	8.531250	-1.150625
-63.989002	-43.066002	998.630981	18.108126	-6.562500	-1.255625
-39.223000	-15.067000	1199.931030	3.850000	-16.611876	-0.328125
-19.093000	-14.884000	1253.062012	-0.608125	0.516250	-0.021875
-32.513000	-18.726999	1254.891968	3.587500	-3.482500	2.270625
-29.463001	-31.293001	1085.250977	13.960625	17.801874	5.302500
-45.262001	-13.847000	1029.984985	15.019375	-3.578750	4.991875
-39.894001	-2.318000	977.708008	0.091875	-6.776875	0.363125
-47.396999	12.749001	947.330017	-8.386875	-4.865000	-3.430000
-47.031002	0.427000	967.765015	-9.821875	-10.771250	-4.130000
-45.079002	0.244000	989.786011	-5.595625	-4.221875	-4.046875
-46.116001	2.806000	1031.692993	-4.886875	-10.959375	-2.852500
-40.015999	-0.488000	1059.020996	-3.198125	-10.075625	-1.806875
-39.284000	-8.296000	1042.001953	-5.521250	-3.780000	0.218750
-33.489002	-5.429000	1023.031006	-3.438750	3.132500	0.914375
-19.337000	-10.736000	1010.403992	-3.583125	-2.410625	0.463750
-22.814001	-36.173000	1014.734985	-3.885000	-3.027500	-0.175000
-23.668001	-28.304001	986.980042	-1.526875	-2.765000	-1.946875
-14.762000	-30.805000	992.775024	-2.423750	-4.830000	-2.401875
-4.148000	-19.153999	1013.515015	-0.157500	-4.908750	-1.286250
-10.736000	-32.757000	1217.682007	-0.056875	-19.643749	-0.997500
-17.202000	-48.922001	1296.859985	8.054375	-29.610001	-0.818125
44.285999	-10.736000	1310.218994	11.252500	-22.373751	5.005000
30.012001	5.307000	1334.375000	-3.705625	-25.375000	6.965000
44.529999	-13.115000	1339.987061	-17.425625	-9.725625	5.849375
51.423000	-35.075001	1249.218994	-29.071875	-16.327499	2.340625
19.642000	-34.038002	1167.540039	-27.908125	14.188125	2.668750
39.101002	-76.006004	1064.510986	-16.200624	13.846875	3.600625
47.396999	-70.882004	1011.807007	-9.773750	22.631874	4.462500
54.411999	-69.295998	1057.191040	-11.256875	23.703751	4.913125
36.539001	-100.710999	1016.442993	-17.084375	50.443748	4.961250
30.195000	-111.508003	1085.739014	-0.713125	40.836250	4.790625
-10.370000	-84.729004	904.691040	16.725624	46.200001	-0.861875
-31.171000	-116.510002	975.572998	18.628750	46.619999	-1.960000
-36.112000	-83.264999	825.817993	32.882500	18.239374	-5.000625
-78.202003	-71.065002	733.952026	26.630625	45.465000	4.948125
-87.351997	-67.344002	601.093994	18.886875	37.161251	4.068750
-227.408005	-24.400000	518.072998	-4.571875	36.281876	16.935625
-162.931000	-66.551003	559.858032	-13.623750	24.670626	9.419375
-108.763000	-83.631004	633.424011	-16.279375	12.840625	-4.738125
-136.701004	-13.420000	630.374023	-6.002500	7.350000	-11.361875
-115.473000	-28.487000	698.877014	-10.482500	2.576875	-7.455000
-141.214996	-50.264000	707.721985	2.060625	6.286875	2.340625
-141.703003	-52.033001	729.621033	-3.854375	0.052500	3.745000
-169.091995	-19.520000	723.093994	-2.397500	-8.557500	7.183750
-150.548004	-96.929001	764.452026	-0.844375	-20.768126	-5.446875
-119.133003	-60.146000	747.738037	9.318750	-16.069374	-15.159375
-155.854996	-27.023001	867.846985	22.028126	-54.613125	-3.941875
-48.922001	-56.973999	912.194031	-9.065000	-51.222500	-6.479375
-25.620001	-63.806000	1095.316040	9.533125	-18.033751	-14.686875
-3.233000	-88.694000	1271.911011	-0.476875	-60.996250	-21.179375
4.026000	5.307000	1284.781982	18.930626	-47.236874	-31.609375
-68.320000	-29.036001	1603.323975	24.381874	-55.203751	-7.210000
4.819000	91.195000	1715.380981	12.040000	-44.454376	7.135625
-85.095001	53.313999	1868.490967	1.758750	-36.802502	11.274375
-130.417999	-27.145000	1858.547974	-14.581875	-28.879375	-1.216250
11.895000	-32.635002	1489.192993	-9.931250	45.014374	-7.761250
28.914000	-33.062000	1295.822998	1.898750	34.286877	-10.346875
23.180000	-54.656002	1216.401001	13.076875	23.957500	-9.992500
111.691002	-52.582001	1071.343018	31.762501	-6.903750	-5.840625
145.729004	21.106001	1038.708008	11.685625	-16.379999	-2.362500
149.938004	13.969000	866.566040	-12.328750	10.517500	9.170000
56.303001	30.866001	749.994995	-29.255625	50.133125	19.333124
-2.379000	-7.930000	564.859985	-32.952499	52.644375	22.421875
-55.449001	-41.968002	645.807007	-31.771250	29.548750	18.707500
-48.617001	-40.687000	697.046997	-11.335625	5.670000	2.406250
-36.112000	-50.751999	837.408020	-5.656875	14.091875	7.450625
-47.519001	-65.879997	830.332031	4.488750	-1.474375	4.655000
-74.481003	-44.957001	909.265991	12.985000	-21.402500	2.244375
-34.952999	-44.957001	959.164001	12.241250	-23.856874	-0.253750
-34.403999	-25.010000	1021.689026	3.766875	-11.655000	1.478750
-45.932999	-29.524000	1034.193970	-2.152500	-3.552500	4.410000
-47.091999	-44.957001	1031.083008	1.618750	-8.356250	2.555000
-43.126999	-38.247002	1041.087036	6.300000	0.966875	-3.819375
-13.664001	-21.106001	1049.016968	5.643750	-12.652500	-4.615625
0.000000	-33.367001	1046.881958	-0.721875	10.106250	-0.748125
-5.063000	-37.209999	1043.343994	-4.038125	11.143125	-0.030625
-29.951000	-34.892002	1042.795044	-10.110625	1.701875	2.073750
-42.517002	-32.635002	987.223999	-5.057500	6.024375	-2.240000
-56.973999	-42.639000	967.643005	4.773125	3.263750	-7.323750
-24.827000	-38.125000	1010.587036	2.450000	-8.435000	-9.266250
-33.977001	-54.534000	1038.402954	0.008750	-1.763125	-9.375625
-16.958000	-34.160000	1057.495972	1.815625	-8.894375	-9.581250
-9.638000	-33.000999	1030.717041	-7.223125	-6.181875	-7.284375
-5.673000	-53.497002	1004.364990	-8.693125	-12.101250	-6.164375
-22.204000	-96.319000	1028.520996	-5.127500	4.186875	-4.287500
-4.392000	-62.586002	1028.093994	-3.276875	-3.434375	-4.558750
4.453000	-70.028000	1036.511963	4.554375	2.751875	1.071875
1.769000	-45.567001	1024.250977	9.655625	2.327500	0.153125
5.307000	-55.998001	1051.151978	3.460625	5.092500	1.190000
-2.684000	-41.236000	966.057007	-5.328750	1.185625	0.783125
-8.357000	-42.821999	961.481995	-6.466250	2.380000	0.468125
-9.333000	-59.779999	961.116028	-10.447500	-11.515000	1.076250
-1.647000	-58.011002	983.197998	-4.519375	-12.258750	2.135000
6.954000	-59.535999	1052.738037	1.929375	-12.652500	-0.892500
15.921000	-58.621002	1407.575073	-4.646250	-40.298126	-0.415625
22.387001	-98.209999	1518.411987	-13.230000	-19.166876	5.446875
35.380001	-23.424000	1490.046997	14.043750	9.988125	7.590625
16.653000	-128.710007	1365.180054	52.806252	21.415625	6.711250
21.410999	-6.771000	1158.451050	50.955624	-10.692500	-5.543125
32.025002	41.480000	1071.891968	16.633751	-10.421250	-10.438750
148.412994	54.839001	1051.640015	-18.414375	-57.233749	-8.474375
168.177002	22.204000	931.835999	-54.866875	14.568750	7.844375
151.828995	-33.000999	815.997009	-38.395000	88.523750	0.647500
103.761002	6.283000	798.124023	-26.009375	120.382500	-8.649375
9.699000	-97.234001	741.088989	-5.936875	63.332500	-11.256875
-23.973000	-109.678001	785.863037	11.834375	59.556873	-19.744375
-61.061001	-90.219002	745.968994	-0.721875	27.768126	-5.604375
-105.529999	-87.473999	664.229004	-3.521875	26.945625	-2.165625
-89.121002	-90.158005	658.921997	-10.115000	21.953751	2.432500
-66.856003	-38.857002	600.423035	-8.850625	26.315624	2.205000
-102.663002	-42.151001	640.134033	-6.177500	-22.163750	9.301250
-114.862999	-53.558002	699.548035	-10.228750	11.843125	7.433125
-143.716003	-85.339005	701.682983	-9.327500	2.865625	6.829375
-147.253998	-109.861000	809.958008	-6.304375	4.856250	-14.595000
-161.528000	-40.504002	794.708008	2.970625	3.285625	-13.886250
-156.647995	-91.439003	815.630981	4.808125	-13.378750	-8.513750
-121.084999	-91.134003	904.385986	14.297500	-44.436874	-4.685625
-147.742004	-166.957001	978.195984	0.616875	-55.352501	3.364375
-81.191002	-216.733002	986.247986	-14.625625	-32.860626	-3.701250
-80.336998	-106.201004	1106.296021	40.731251	-52.460625	-10.688125
-75.457001	14.518001	1410.320068	48.409374	-17.762501	14.223125
-121.084999	-8.967000	1294.541992	45.753750	-11.353125	16.756250
-90.889999	70.638000	1290.333008	40.118752	-52.823750	24.189375
-84.362999	58.926003	1590.758057	-12.486250	-69.466248	9.695000
-12.993000	-4.880000	1711.721069	-39.917500	-28.481251	-0.743750
7.869000	-38.186001	1560.258057	-45.425625	1.295000	-8.732500
15.738000	-95.891998	1410.869019	-5.411875	25.055626	-16.152500
26.352001	-35.624001	1270.203003	5.438125	26.967501	-22.137501
30.195000	-35.806999	1131.306030	3.710000	26.919374	-15.728125
19.398001	-19.886000	1105.930054	-10.876250	26.040001	-9.646875
-4.819000	-47.580002	1033.279053	-15.623125	25.038124	-1.207500
6.710000	-76.250000	867.237000	-18.375000	23.498125	-0.879375
-34.221001	-82.411003	901.763000	-17.106251	13.632500	0.608125
-75.822998	-42.151001	628.544006	-16.463125	51.590000	5.061875
-115.412003	-55.570999	673.867004	-10.001250	-5.381250	8.172500
-106.750000	-79.910004	778.177002	7.424375	-20.020000	7.953750
-88.571999	-78.445999	881.755005	12.652500	2.388750	8.767500
-73.749001	-68.014999	900.054993	11.510625	-4.961250	5.521250
-29.646000	-96.196999	1012.600037	19.355000	-9.690625	3.027500
-25.498001	-52.399002	1042.185059	-2.156875	-18.099375	-0.546875
-50.630001	-80.581001	1016.077026	-2.187500	1.360625	-2.021250
-61.610001	-48.190002	985.393982	5.932500	-14.262500	3.539375
-41.114002	-57.096001	994.544006	13.615000	-4.869375	3.447500
-49.653999	-42.395000	965.752014	18.392500	1.540000	0.739375
-21.045000	-38.003002	1039.135010	16.843750	-12.070625	-1.155000
-25.681000	-34.465000	1047.796997	7.651875	-3.364375	2.716875
-59.475002	-26.474001	1034.316040	-6.041875	11.011875	7.450625
-60.817001	-40.748001	1042.185059	-4.379375	-2.218125	8.194375
-43.615002	-11.102000	1063.352051	0.214375	1.684375	7.791875
-57.645000	-4.209000	1017.968018	11.475625	6.575625	7.805000
-42.395000	25.986000	987.468018	10.141250	4.340000	9.152500
-52.338001	9.028000	1034.072021	5.831875	-4.322500	7.975625
-50.142002	-12.871000	1003.877014	6.991250	-0.056875	1.168125
-44.469002	-0.122000	979.843018	-1.382500	-2.091250	-0.949375
-52.216000	-25.802999	1019.737000	-6.720000	0.831250	-2.861250
-45.262001	-11.163000	1012.539001	-10.412500	-1.579375	-2.944375
-42.700001	-14.335000	1031.998047	-4.427500	-1.251250	-1.850625
-47.336002	-26.718000	1034.193970	0.665000	-1.391250	-0.945000
-46.360001	-23.302000	1015.040039	-0.271250	0.997500	1.435000
-39.650002	-19.093000	1022.116028	-0.240625	-0.835625	2.069375
-49.227001	-21.777000	1020.835022	-0.630000	0.853125	0.424375
-46.726002	-11.529000	1001.437012	-3.080000	-0.227500	-2.791250
-47.702000	-10.492001	974.414001	-8.176875	2.686250	-1.281875
-47.091999	-16.836000	951.966003	-5.145000	0.743750	-0.651875
-43.431999	-17.323999	906.277039	-3.342500	2.856875	0.503125
-58.072002	-21.960001	900.665039	-1.251250	-1.404375	-1.938125
-68.807999	-33.672001	808.189026	10.548125	11.431875	-9.734375
-54.839001	-34.587002	779.702026	15.863750	29.938126	-7.301875
-76.555000	-26.840000	724.436035	2.183125	8.636250	-9.340625
-42.334000	-20.984001	729.499023	-14.306250	11.169375	-11.913125
-7.381000	-16.287001	1014.613037	-8.916250	-9.660000	-12.127500
-45.628002	-50.202999	993.812012	15.181250	-9.703750	-10.819375
-27.389000	16.226000	999.179993	48.418125	-19.070625	-3.465000
-8.357000	80.641998	1096.414062	37.926876	-2.852500	18.659374
-13.542000	74.907997	1014.064026	-9.279375	-18.624374	12.980625
13.542000	62.586002	1200.723999	-1.106875	-12.337500	19.110001
-14.579000	59.109001	1411.906006	-4.270000	-44.966251	13.352500
-45.445000	33.549999	1590.697021	6.339375	-43.522499	7.826875
-51.179001	65.514000	1658.406982	23.712500	-28.118126	-6.916875
25.925001	90.036003	1573.250977	16.209375	-4.011875	-17.285625
82.959999	84.545998	1470.770996	0.328125	25.042500	-15.570625
18.300001	83.997002	1341.145996	-14.336875	23.423750	-8.478750
27.938000	87.413002	1311.072998	-21.551250	4.978750	-7.336875
-28.182001	47.702000	1231.406982	-35.227501	11.956875	-3.421250
-2.013000	23.118999	1236.836060	-24.696875	7.612500	-1.833125
-22.264999	32.635002	1105.625000	2.174375	10.596250	-1.176875
1.830000	79.971001	992.592041	-9.550625	16.231251	-4.908750
-8.052000	48.739002	919.575012	-7.341250	34.098751	8.260000
-44.408001	-5.490000	757.254028	-7.931875	18.283125	15.050000
27.267000	-29.524000	800.015015	-6.632500	18.182501	10.736250
13.420000	-26.962000	748.104004	-3.521875	45.377499	8.338750
-97.904999	21.837999	467.565002	6.558125	40.131874	3.364375
-85.400002	18.422001	414.433990	24.316250	14.284375	-3.863125
-147.193008	-39.955002	538.142029	2.060625	15.321250	2.603125
5.124000	-54.411999	527.833008	-17.928749	-25.103750	17.701250
-36.844002	-54.290001	526.552002	-37.821877	12.215000	8.929375
-92.170998	-22.631001	709.613037	-21.879375	9.288125	-7.179375
-44.591000	-61.122002	806.664001	-13.908125	-15.071875	-16.095625
-45.811001	-99.307999	805.505005	2.423750	-8.150625	-16.458750
-116.693001	-72.651001	847.106995	6.208125	-1.627500	-18.602501
-96.501999	-89.548004	892.918030	11.064375	-15.338750	-17.193750
-111.569000	-68.930000	978.135010	5.840625	-56.546875	-19.814375
-76.127998	-46.421001	1063.535034	20.531876	-53.606876	-13.833750
-104.431999	9.821000	1276.852051	23.506874	-47.901875	-7.901250
-17.323999	27.999001	1465.708008	23.240000	-18.480000	-5.884375
3.477000	45.688999	1541.409058	17.110624	-27.903749	5.184375
-22.143000	30.378000	1468.391968	-13.028750	15.977500	10.132500
19.215000	18.239000	1288.136963	-8.452500	24.613750	11.340000
-24.339001	-22.326000	1193.037964	-1.155000	15.964375	13.680625
-21.655001	-25.559000	1079.883057	4.690000	14.630000	9.318750
-40.260002	-15.250000	1019.919983	14.140000	18.913124	4.274375
-40.260002	10.614000	973.742981	0.398125	8.080625	4.099375
-18.726999	6.283000	986.187012	-4.497500	7.892500	4.882500
-37.088001	15.067000	1017.785034	10.368750	-0.240625	4.515000
-45.262001	12.749001	996.434998	7.236250	-0.223125	3.670625
-43.371002	30.622000	974.658020	-0.087500	2.174375	0.656250
-46.421001	22.387001	980.757996	-6.050625	4.090625	1.413125
-55.083000	15.982000	988.749023	-13.177500	2.384375	0.354375
-59.292000	-9.821000	1020.468994	-5.201875	0.726250	-1.400000
-44.957001	7.198000	1013.759033	5.560625	-6.111875	0.455000
-39.650002	6.710000	1031.144043	6.737500	-4.659375	2.843750
-27.389000	15.555000	1008.208008	10.093125	-1.933750	3.360000
-29.707001	31.293001	1032.181030	6.046250	-4.230625	3.281250
-39.894001	32.330002	975.450989	0.953750	2.778125	3.994375
-26.047001	20.191000	998.692017	-4.585000	0.249375	3.403750
-13.603000	17.812000	1021.018005	-1.378125	-7.630000	1.369375
-11.468000	20.984001	1033.645020	0.437500	3.762500	-0.446250
-19.032000	23.118999	1021.322998	-0.673750	-0.463750	-3.163125
-27.450001	21.960001	996.923035	-0.700000	-1.688750	-3.285625
-21.106001	28.059999	973.742981	-2.712500	2.765000	-1.233750
-11.895000	7.198000	1021.140015	-1.658125	2.270625	-0.363125
-23.424000	0.122000	1061.827026	-7.231875	-1.981875	-0.231875
-42.151001	10.370000	1021.627991	-9.393125	11.856250	-1.343125
-59.902000	5.429000	991.067017	-7.170625	7.231875	-5.114375
-58.804001	12.932000	950.197021	-3.386250	7.078750	-6.221250
-55.083000	17.873001	891.393005	-0.651875	5.963125	-6.794375
-52.216000	4.331000	914.512024	-1.172500	-4.462500	-7.109375
-63.806000	-17.750999	777.078979	-8.583750	12.731250	-8.098125
-49.288002	28.182001	895.053040	-27.860001	-9.349375	-5.053125
-51.972000	-38.063999	919.635986	-26.455626	8.771875	-1.920625
-12.444000	-24.827000	858.514038	-31.906876	-4.768750	-2.550625
-30.805000	-77.165001	1001.497986	-12.893125	6.755000	2.695000
-30.500000	-82.959999	991.127991	3.583125	14.227500	6.146875
-3.721000	-48.983002	971.546997	28.988750	-9.756250	8.680000
-26.169001	-77.775002	1108.675049	35.249374	-31.727501	12.547500
17.568001	-70.882004	1110.566040	31.565624	-19.333124	13.829375
25.498001	-35.624001	1203.041992	-3.093125	-17.902500	-2.056250
20.679001	-9.760000	1238.421997	-3.915625	-26.359375	-3.758125
-72.834000	-48.799999	1403.915039	1.640625	29.973125	-4.392500
-51.850002	-38.247002	1340.230957	17.661875	-4.760000	-1.163750
-53.253002	-38.430000	1308.633057	39.103748	-11.025000	3.163125
9.943000	64.171997	1420.994995	28.209999	-22.421875	-3.745000
-42.212002	50.630001	1470.161011	5.656875	1.513750	-6.956250
15.738000	56.791000	1388.482056	-1.308125	-0.201250	-9.782500
43.005001	124.135002	1299.421997	-2.380000	8.426250	-4.348750
27.938000	124.745003	1318.270996	-11.038125	3.517500	1.518125
2.501000	52.459999	1200.358032	-37.931252	-26.753124	4.366250
51.910999	31.232000	1190.109985	-43.505001	-5.158125	2.428125
135.237000	58.072002	922.625000	-53.064377	-0.538125	14.376250
26.596001	60.633999	729.742981	-2.113125	4.134375	19.508125
-15.494000	49.776001	649.039978	-8.925000	43.841873	34.457500
-5.795000	-72.528999	631.716003	14.752500	65.966248	11.978750
-8.601000	-79.361000	643.794006	23.909374	45.198124	-2.681875
-48.983002	-33.367001	491.964996	30.520000	74.860626	-16.021250
-48.007000	-21.106001	484.766998	-5.560625	38.994373	-1.837500
-51.300999	-47.275002	554.612000	-13.645625	12.888750	-0.651875
-27.694000	-53.680000	517.707031	-32.803749	0.748125	-5.145000
-70.882004	-42.028999	637.877014	-41.015625	13.890625	0.354375
-94.611000	-64.538002	670.512024	-23.309999	-32.296249	-5.446875
-83.814003	-132.369995	785.984985	-4.287500	-26.582500	-13.046250
-65.148003	-124.562004	844.057007	-3.504375	-16.043125	-18.628750
-130.356995	-98.576004	947.330017	13.028750	-8.220625	-19.215000
-82.716003	-129.076004	1012.294983	15.071875	-1.080625	-20.142500
-80.093002	-59.841000	1119.593994	29.413124	19.175625	-12.919375
-183.182999	-98.942001	1230.125977	23.607500	-23.205000	2.520000
-87.840004	-78.018997	1429.229980	50.325626	-58.467499	3.416875
-70.943001	3.111000	1453.447021	5.709375	-22.741249	15.513750
-99.064003	-50.996002	1317.295044	2.388750	-0.525000	7.004375
-47.824001	30.134001	1279.291992	0.555625	-23.743126	6.601875
-81.434998	-14.030000	1232.870972	-13.755000	3.123750	3.976875
-25.132000	-3.660000	1040.721069	-7.813750	-8.631875	1.715000
-39.955002	-27.023001	1043.649048	6.868750	4.064375	3.731875
-18.300001	-24.461000	999.911987	4.396875	-5.726875	2.165625
5.246000	-52.643002	990.273987	5.285000	-10.972500	4.081875
-13.786000	-40.077000	1009.489014	9.887500	-8.172500	3.399375
-6.039000	4.026000	1018.700012	4.375000	-5.560625	-0.170625
8.967000	18.361000	1008.147034	6.230000	-5.131875	4.248125
26.718000	31.110001	1016.260010	4.917500	-1.264375	7.428750
23.790001	9.638000	1031.754028	-2.152500	-1.330000	7.634375
36.173000	13.969000	990.091003	-3.023125	-8.163750	3.539375
9.516000	-15.372000	1029.680054	-5.057500	18.541250	2.664375
-2.135000	-0.244000	1023.335999	-4.847500	2.213750	-1.408750
11.956000	-9.577000	1021.872009	-3.211250	0.848750	-1.351875
10.126000	-21.228001	1012.539001	0.332500	9.953125	-2.012500
-6.954000	-16.226000	1020.713013	0.065625	0.835625	-1.999375
-4.758000	-15.250000	1004.364990	0.323750	-0.577500	-2.751875
0.793000	-11.956000	994.299988	-0.275625	3.110625	-2.008125
-8.296000	-6.100000	1015.893982	1.960000	4.261250	0.096250
-2.196000	-7.869000	1017.480042	3.963750	-1.015000	1.146250
0.183000	-10.858000	1022.177002	5.827500	1.238125	2.016875
0.976000	1.952000	1015.588989	3.963750	0.870625	1.286250
-7.442000	-1.464000	996.374023	-2.200625	6.098750	-0.861875
-6.161000	4.148000	990.762024	-0.481250	0.271250	-0.853125
-0.305000	1.220000	992.470032	0.179375	1.964375	-0.494375
-6.954000	2.440000	1002.718018	2.891875	4.506250	0.997500
-6.344000	0.671000	1011.135986	1.268750	0.380625	1.793750
-2.745000	1.891000	1008.695984	1.067500	-5.245625	0.328125
-1.586000	0.122000	1170.102051	-0.310625	-8.474375	1.006250
-11.773000	6.222000	1400.803955	-7.695625	-18.392500	-2.520000
-46.786999	8.113000	1517.863037	-7.525000	-35.354374	-5.442500
25.254000	24.034000	1445.029053	-3.241875	-9.480625	-8.085000
12.566000	37.820000	1327.115967	11.501875	-21.800625	-9.266250
66.368004	65.331001	1180.959961	-1.557500	-50.373749	-6.934375
95.953003	120.048004	-18.544001	-18.059999	-51.642502	-5.595625
193.613998	-18.788000	1006.744019	-33.149376	-6.300000	8.045625
110.227005	-39.589001	843.874023	-19.696251	132.015625	-9.043125
73.809998	-27.450001	902.067993	-12.219375	123.965622	-11.427500
-0.854000	-105.591003	990.579041	-9.913750	83.313126	-1.001875
-56.852001	-91.561005	936.166992	8.653750	50.579376	-6.829375
-92.049004	-69.845001	849.364014	13.426875	37.883125	-1.124375
-143.410995	-43.371002	662.155029	2.883125	35.179375	8.750000
-143.777008	-54.534000	631.593994	-13.339375	37.699375	15.806875
-199.897003	-83.875000	625.616028	-12.359375	32.554375	7.420000
-177.509995	-35.257999	571.203979	-12.180000	-0.476875	-14.516250
-140.544006	-49.288002	586.880981	-15.846250	7.730625	-14.148750
-137.738007	-45.506001	514.656982	-13.050625	-2.261875	-15.750000
-79.117004	-54.716999	670.023987	-4.081875	-10.071250	-6.943125
-66.001999	-84.180000	684.237000	3.535000	2.913750	0.336875
-126.514000	-80.641998	607.499023	12.569375	42.542500	17.810625
-169.335999	-110.043999	665.083008	37.008125	-10.115000	0.096250
-12.139000	-58.499001	760.242981	44.222500	-71.006248	-11.427500
-104.676003	-4.880000	1012.173035	1.806875	-82.044373	-3.460625
-20.496000	-3.172000	1231.346069	-55.221249	-65.104378	7.306250
-54.595001	-159.576004	1242.143066	-46.519375	-36.220627	6.199375
-205.143005	-186.964996	1524.511963	2.380000	52.014374	5.149375
-133.102005	-92.537003	1267.640991	11.681250	-24.184999	-1.006250
-231.556000	-109.738998	1520.669067	19.700624	-22.181250	17.040625
-200.690002	-122.305000	1527.196045	28.590626	-45.849998	1.684375
-200.018997	-47.031002	1652.856079	42.936249	-52.058125	2.130625
-60.878002	27.023001	1545.252075	40.849377	-36.036877	-7.013125
7.808000	58.376999	1471.990967	43.986252	-7.013125	-3.128125
37.209999	86.193001	1238.787964	32.186874	3.311875	1.246875
83.264999	100.467003	1127.768066	21.621250	26.324375	10.465000
14.457000	66.794998	1099.769043	-7.818125	29.596874	13.326250
23.790001	58.376999	1036.207031	-19.210625	-3.920000	5.919375
14.884000	66.612000	853.939026	-28.761250	11.370625	2.038750
14.457000	59.230999	742.674988	-30.572500	35.848751	10.491250
-71.431000	4.514000	668.804016	-18.733749	33.223751	11.086250
-55.937000	7.076000	644.160034	10.478125	23.257500	2.270625
-38.674000	17.385000	834.541016	7.402500	9.603125	-1.741250
-72.711998	27.450001	871.567993	0.393750	-1.093750	3.548125
-57.401001	-10.187000	934.885986	-0.949375	-10.150000	1.325625
-53.253002	-9.638000	1023.945984	-13.177500	-9.244375	-1.640625
-54.716999	2.074000	1007.231995	-19.941250	-13.510000	-3.443125
-69.052002	-14.030000	1034.255005	-7.013125	-1.124375	-5.871250
-59.902000	-5.612000	1024.190063	-11.112500	2.572500	-3.346875
-64.660004	-26.901001	1008.940002	2.690625	2.769375	-1.032500
-32.635002	-5.734000	1015.528015	5.783750	-7.520625	3.101875
-51.179001	-38.796001	1038.769043	5.910625	4.431875	3.937500
-49.653999	-6.527000	1008.574036	10.036250	-10.373125	-2.314375
-49.776001	-4.270000	1043.893066	-2.156875	-2.130625	-4.186875
-41.297001	14.335000	982.648987	-3.325000	-5.617500	-2.371250
-50.935001	-0.610000	1012.966003	-11.405625	0.293125	4.296250
-44.591000	-26.840000	1046.394043	-2.104375	-7.113750	1.767500
-46.909000	-32.879002	1039.379028	3.040625	0.949375	-0.026250
-49.653999	-11.224000	988.566040	0.056875	3.513125	-1.150625
-36.295002	-20.007999	1043.466064	-0.888125	4.506250	-0.472500
-35.319000	-10.309000	1004.975037	-1.658125	-0.345625	1.505000
-42.090000	-15.494000	1002.962036	-3.858750	-0.686875	2.331875
-41.053001	-4.453000	984.174011	3.543750	-3.670625	-1.120000
-40.564999	-11.895000	1008.025024	4.147500	1.938125	-0.573125
-30.012001	-5.429000	1009.611023	3.692500	-6.444375	-1.815625
-26.962000	-15.372000	1039.806030	2.104375	3.670625	-0.586250
-41.907001	-1.220000	985.882019	-0.258125	-6.965000	-1.102500
-40.260002	-14.152000	988.687988	0.573125	4.703125	-0.245000
-44.774002	-16.469999	1017.114014	4.379375	-7.791875	-0.328125
-22.264999	-8.113000	1065.974976	4.834375	-6.304375	1.430625
-26.535000	-12.383000	1160.525024	5.591250	-22.163750	3.294375
-35.929001	1.281000	1212.557983	2.240000	-13.615000	4.777500
-38.674000	-10.370000	1198.954956	3.373125	-10.670625	4.007500
-27.938000	-6.161000	1277.523071	7.818125	-21.153126	-1.548750
47.091999	60.695000	1174.982056	5.967500	-17.635626	-3.027500
22.387001	18.788000	1134.355957	-4.108125	9.506875	-5.516875
10.919000	88.389000	998.265015	-0.013125	-1.286250	-0.039375
15.067000	22.387001	1036.451050	17.548124	1.050000	-7.437500
5.795000	45.323002	1172.297974	19.053125	24.661875	7.253750
-12.383000	91.987999	1072.014038	-2.940000	32.112499	-5.232500
52.459999	54.961002	992.713989	3.198125	58.664375	-6.125000
-45.201000	20.313000	843.080994	5.705000	52.351250	3.101875
-43.126999	-0.915000	812.885986	1.561875	31.250626	11.143125
-48.190002	-30.988001	781.348999	-4.764375	38.915627	1.645000
-107.177002	-0.976000	714.676025	-20.361250	33.149376	3.696875
-101.870003	21.837999	673.684021	-23.406250	28.485624	-4.690000
-75.152000	-1.525000	704.671997	-20.313126	8.316875	-9.441250
-97.599998	-9.882000	708.820007	-18.208750	8.505000	-10.351250
-121.084999	22.264999	685.700989	-13.772500	-3.381875	-4.790625
-96.989998	-43.066002	767.624023	-1.929375	-20.851250	1.176875
-101.870003	-33.244999	771.772034	1.758750	-20.689375	7.669375
-101.992004	-17.385000	771.406006	26.818750	5.376875	10.158750
-94.733002	-16.896999	796.781982	34.995625	-28.997499	0.770000
-139.934006	34.647999	760.121033	38.626877	-21.288750	-11.462500
-13.786000	84.667999	781.531982	31.618126	-26.092501	-2.205000
-73.931999	115.045998	876.509033	11.029375	-26.893126	10.784375
-24.461000	100.528000	1139.541016	-42.590626	-37.642502	5.311250
-22.875000	108.214005	1155.583984	-33.599998	17.688126	1.365000
-89.548004	75.762001	1370.609009	-44.782501	-24.858749	-9.305625
-115.900002	-45.993999	1634.373047	-24.517500	7.791875	4.471250
-253.150009	20.434999	1571.969971	-22.054375	27.479376	-2.423750
-220.514999	-15.494000	1442.406006	-6.335000	-33.831875	2.450000
-164.822006	-41.723999	1473.760010	4.943750	-54.893124	-0.581875
-31.537001	-50.813000	1320.711060	22.049999	-22.330000	-17.320625
21.837999	-0.854000	1100.500977	20.899376	-11.795000	-9.380000
24.095001	-30.743999	1052.738037	34.785625	12.845000	-6.461875
8.418000	28.792000	1172.297974	32.755627	-12.425000	0.288750
-5.246000	17.507000	1112.884033	-26.035625	16.830626	-7.039375
5.856000	-25.071001	943.121033	-30.148125	64.334373	-0.091875
-61.915001	-34.465000	920.673035	-18.191250	22.417500	1.421875
-64.598999	-5.002000	752.739990	-9.590000	31.150000	1.273125
-78.080002	-30.988001	813.984009	-5.105625	26.149376	2.948750
-90.584999	-12.810000	882.487000	-9.156875	-1.001875	0.840000
-79.422005	-29.524000	896.090027	-13.518750	18.116875	-4.865000
-78.750999	-37.271000	911.156982	-8.067500	11.808125	3.088750
-158.660995	-23.912001	939.765991	-7.415625	12.516875	6.566875
-123.403000	-36.173000	926.651001	-2.970625	-1.929375	-9.620625
-83.509003	-45.811001	998.143005	10.766875	3.027500	-1.811250
-122.182999	-40.504002	1033.949951	-1.386875	-4.628750	14.218750
-173.117996	-39.101002	935.496033	-4.563125	12.403125	7.070000
-122.061005	-25.498001	959.103027	22.408751	-14.708750	-3.591875
-102.175003	-22.264999	1080.493042	20.772499	-7.258125	0.634375
-125.903999	-17.323999	1041.880005	7.630000	-8.194375	3.491250
-99.857002	-10.004000	1027.239990	-15.448125	6.155625	3.220000
-117.852005	-25.437000	1006.866028	-8.351875	-0.074375	8.111250
-109.738998	-33.916000	986.492004	-3.228750	1.688750	8.111250
-130.113007	-0.183000	998.143005	-1.019375	-8.080625	9.450000
-94.733002	-21.410999	996.739990	2.646875	-6.623750	6.256250
-95.586998	-19.886000	1012.416992	4.466875	-5.219375	1.693125
-101.320999	27.755001	1022.299011	5.267500	-5.788125	3.263750
-108.458000	16.226000	998.387024	6.829375	-7.109375	-4.908750
-74.847000	1.525000	1018.760986	11.913125	-8.723750	-7.595000
-61.854000	-9.455000	1035.230957	7.236250	-4.038125	-1.815625
-73.993004	-41.114002	1056.214966	-16.082500	9.528750	10.390625
-125.416000	-31.171000	967.704041	-14.056875	4.073125	4.519375
-76.982002	2.135000	950.624023	8.946875	-20.588751	-2.283750
-72.101997	5.917000	1069.086060	16.253124	-12.110000	0.494375
-19.276001	4.087000	1103.001953	1.658125	-18.003124	3.561250
-70.820999	-14.457000	1174.982056	4.230625	-26.683125	1.421875
-30.134001	22.082001	1245.131958	-5.958750	-5.731250	-3.176250
-37.514999	-14.396000	1175.896973	-16.883125	-7.590625	-4.550000
-23.180000	-11.773000	1210.422974	-19.516874	3.657500	-0.560000
-45.567001	-12.993000	1217.926025	-11.589375	-6.090000	-1.303750
-51.667000	-23.607000	1210.301025	-9.760625	1.435000	5.429375
-21.716000	-9.760000	1151.619019	4.865000	-1.859375	-3.386250
-7.381000	0.488000	1120.265015	0.481250	6.155625	6.457500
33.977001	-23.851000	1067.744019	3.294375	23.318750	12.175625
-82.472000	16.958000	819.962036	7.271250	25.147499	10.635625
-30.927000	-113.521004	906.033020	3.683750	45.233124	14.411250
-105.529999	-48.799999	680.150024	3.535000	33.429375	1.242500
-93.878998	-20.069000	608.536011	1.763125	41.645626	2.450000
-84.667999	-53.313999	619.088989	-9.336250	16.673124	0.293125
-39.833000	-29.036001	605.729980	-10.088750	25.637501	-5.884375
-86.925003	-22.570000	604.815002	-17.416876	13.199375	1.238125
-118.584000	5.246000	605.119995	-8.981875	-14.175000	0.818125
-133.223999	-56.608002	643.976990	2.944375	-32.716251	-8.973125
-19.398001	-38.186001	644.038025	7.984375	-38.806252	-7.625625
-86.863998	-6.649000	739.564026	1.400000	8.273125	-1.701875
-43.737000	-37.942001	781.653992	-37.117500	-25.366249	4.173750
-85.643997	-104.309998	759.205994	2.913750	21.332500	-4.313750
27.205999	-139.690002	1087.141968	8.789375	-39.646252	-9.970625
-90.097000	108.885002	1189.561035	-8.089375	-58.900623	-0.376250
-93.818001	-216.916000	1205.726074	-7.336875	0.428750	13.531875
-44.285999	-89.731003	1394.826050	17.561251	-79.708122	4.217500
13.298000	-56.119999	1343.890991	-3.115000	-4.567500	5.188750
24.644001	-44.042000	1325.224976	-13.321875	-23.349375	23.730000
-50.020000	-110.959000	1540.555054	-26.626249	12.320000	23.498125
-17.263000	-178.546997	1560.075073	-13.155625	-32.991875	13.155625
-38.612999	-113.764999	1476.627075	1.885625	-9.314375	-3.198125
31.049000	-122.854004	1300.458984	9.025625	-7.021875	-16.830626
35.806999	-16.409000	1490.535034	-11.033750	-5.525625	-8.841875
55.021999	-79.422005	1079.883057	1.115625	5.849375	-5.757500
15.189000	-98.697998	1137.406006	-9.091250	22.929375	2.183125
-16.042999	-138.958008	854.671021	-19.871250	29.343124	-4.370625
-4.392000	-80.093002	783.362000	14.621250	38.963749	-4.270000
-17.812000	-60.451000	780.921997	0.918750	23.178749	-9.708125
-28.548000	-95.891998	650.869995	15.426250	13.811875	-10.316250
-34.709000	-101.992004	873.153992	21.638750	-1.203125	-16.887501
-10.492001	-47.275002	837.164001	22.833124	-7.660625	-14.682500
22.082001	-42.028999	929.030029	23.821875	1.500625	-5.022500
10.126000	-11.590000	982.648987	10.080000	-19.363750	8.723750
0.366000	-37.149002	1033.156982	9.795625	0.258125	17.311874
-39.284000	-51.056999	1003.083984	1.522500	-5.486250	9.909375
-32.574001	-19.215000	1023.031006	3.246250	-7.367500	-1.211875
-21.655001	-33.916000	1001.803040	-5.875625	3.193750	-4.077500
-19.886000	-20.191000	1023.213989	-6.619375	-4.230625	-5.630625
1.403000	-24.400000	1013.027039	-6.177500	0.297500	-3.661875
1.586000	-55.327000	1025.593018	3.018750	-0.446250	-2.528750
-18.483000	-15.555000	1044.869019	8.640625	-0.393750	-1.089375
6.039000	-12.932000	998.143005	-2.047500	-8.032500	-0.765625
-1.647000	-20.374001	1042.855957	4.326875	5.271875	1.439375
-2.562000	-6.100000	1009.794006	0.529375	-2.616250	0.735000
-15.799000	-22.875000	1034.316040	-1.338750	3.893750	4.825625
-11.956000	-23.607000	1020.164001	-6.282500	4.847500	5.582500
-24.339001	-49.227001	1020.957031	-0.914375	3.666250	3.237500
-22.631001	-31.171000	999.851013	-0.236250	-10.626875	6.103125
-1.586000	-21.289000	1019.859009	-1.045625	1.465625	4.921875
-11.102000	-40.199001	1049.139038	2.349375	-0.385000	2.100000
-11.773000	-26.108000	1023.031006	1.728125	0.363125	-1.693125
2.013000	-17.446001	1018.517029	1.828750	0.345625	-0.966875
5.185000	-23.241001	1005.158020	1.828750	-2.743125	0.910000
7.198000	-25.864000	1005.768005	3.885000	-3.622500	-0.148750
5.307000	-14.701000	964.044006	1.881250	-4.423125	-0.848750
1.952000	-19.153999	976.488037	-1.785000	0.367500	-1.820000
34.770000	-36.904999	1122.704956	-6.811875	-6.251875	-1.680000
13.481000	-48.007000	1294.664062	-12.000625	-13.790000	3.500000
2.074000	-51.179001	1358.042969	-6.059375	-16.668751	5.591250
-1.830000	-55.693001	1195.234009	-6.763750	-1.019375	8.181250
4.880000	-40.320999	1197.796021	19.998125	2.415000	3.613750
15.860001	-21.777000	1157.291992	9.397500	9.655625	4.274375
22.264999	-0.183000	1070.000977	-1.666875	7.433125	6.750625
28.182001	7.747000	981.856018	2.349375	14.525000	9.541875
11.834001	-22.997000	974.475037	12.188750	0.437500	0.406875
15.189000	-32.025002	975.877991	12.105625	29.115625	-1.911875
3.843000	-27.816000	899.567017	5.175625	25.913124	-8.491875
-53.375000	-37.637001	850.156982	7.052500	26.105625	-15.268750
-34.098999	-2.684000	789.828003	13.951875	18.589375	-15.942500
-18.849001	-17.141001	781.044006	12.280625	35.533749	-9.100000
-40.748001	-6.222000	686.005981	5.945625	28.376249	-4.589375
-48.739002	-15.982000	574.924988	-8.408750	10.928750	2.940000
-58.132999	-22.448000	608.596985	-4.948125	15.098125	3.250625
-78.080002	20.069000	667.218018	-11.615625	1.570625	7.883750
-61.000000	-15.616000	639.401978	-11.270000	-8.754375	9.856875
-70.760002	-13.176001	757.376038	10.145625	1.693125	11.221875
-50.996002	16.348000	812.398010	-12.403125	1.811250	-2.524375
-90.951004	-40.748001	914.572998	-23.309999	-6.671875	-8.050000
-47.396999	3.660000	1020.225037	-34.588749	-33.604374	-17.123751
-103.395004	-18.971001	1043.039062	-26.355000	14.953750	-10.106250
-62.708000	-103.456001	1113.677002	-30.804375	-49.179375	-20.606251
-70.333000	-112.301003	1086.044067	-9.699375	8.601250	-8.491875
-28.792000	-132.126007	1122.094971	0.752500	-35.730625	-3.071250
-73.139000	-159.697998	1179.068970	18.165001	13.400625	8.500625
-54.595001	-182.817001	1277.645020	-4.046875	-29.308125	-3.806250
4.392000	-65.086998	1372.744019	23.541876	-22.469999	-1.089375
-44.591000	-68.259003	1379.149048	6.037500	-15.268750	13.208125
-51.056999	-99.247002	1432.524048	6.750625	-29.771875	12.180000
-76.920998	-98.820000	1490.108032	20.186251	-15.841875	2.292500
10.980000	-68.076004	1389.275024	12.897500	-25.816875	-17.010000
64.598999	-60.084999	1187.791992	4.650625	-6.995625	-23.235624
96.746002	-44.713001	1245.558960	-7.262500	11.633125	-23.489374
87.108002	-42.334000	1167.540039	-21.805000	19.635000	-10.815000
99.490997	-64.781998	1102.635986	-31.626875	14.997500	-1.579375
53.985001	-91.439003	1007.781006	-22.898750	-14.861875	19.639376
44.774002	-88.084000	1038.281006	-6.746250	15.951250	17.784374
13.542000	-70.638000	933.178040	-17.451876	29.697500	15.246875
12.322001	-73.504997	794.403015	-11.033750	16.353750	7.818125
-35.929001	-57.096001	733.098022	-2.546250	17.215626	-0.704375
-48.250999	-83.936005	715.591003	16.038750	23.240000	2.642500
-48.922001	-76.799004	776.468994	33.971874	8.771875	-11.786250
1.159000	-68.137001	840.518982	35.673752	-2.607500	-14.743750
-9.516000	-44.103001	880.596008	29.938126	7.962500	-10.434375
-28.792000	-29.829000	900.054993	17.596251	-22.675625	-5.810000
-16.042999	-33.733002	975.450989	9.935625	-1.365000	-2.865625
-14.640000	-18.483000	982.832031	-5.359375	-7.380625	-0.958125
-18.422001	-38.247002	1063.291016	0.809375	7.157500	-1.369375
-16.775000	-48.799999	1027.911011	-6.356875	3.456250	-3.294375
-39.589001	-37.332001	1041.208984	-1.146250	8.308125	-6.199375
-34.526001	-43.249001	1027.666992	-5.993750	5.687500	-1.942500
-36.600002	-39.771999	1063.046997	-2.891875	1.470000	-2.244375
-20.007999	-44.164001	1005.341003	-1.124375	2.467500	-0.004375
-37.393002	-33.793999	1040.050049	8.312500	-6.531875	-0.896875
-23.668001	-10.248000	984.723022	5.219375	-5.201875	0.424375
-30.561001	-25.254000	1044.015015	13.575625	6.641250	-0.122500
-20.557001	-6.466000	1049.993042	4.208750	-11.523750	0.188125
-27.145000	-24.705000	991.554993	2.668750	0.385000	2.226875
-7.625000	3.355000	1039.196045	1.767500	-8.242500	3.906875
-20.923000	-2.623000	1044.869019	-1.260000	3.368750	4.891250
-11.895000	5.734000	1007.109985	-5.499375	-1.876875	5.420625
-29.524000	-24.034000	973.010986	-0.630000	5.670000	4.795000
-29.707001	-21.777000	1008.147034	9.450000	-4.790625	-0.415625
-15.189000	-1.830000	1011.502014	4.711875	0.765625	-0.074375
5.734000	-5.612000	1034.499023	3.972500	1.085000	-1.146250
-0.732000	21.289000	987.590027	-3.141250	-3.885000	2.038750
-15.250000	19.398001	1027.789062	3.850000	2.371250	2.345000
-16.714001	2.074000	1007.293030	1.058750	-7.201250	0.761250
-18.177999	2.684000	1005.950989	1.404375	2.056250	-1.404375
-19.886000	8.357000	921.648987	-7.673750	3.031875	-0.039375
-34.831001	-5.673000	814.044983	-16.126249	2.620625	3.456250
-15.433001	-28.609001	718.213989	-12.775000	4.095000	3.320625
-17.019001	-25.742001	699.242981	1.557500	-10.084375	-0.441875
-16.348000	-25.864000	669.414001	10.517500	-17.981251	5.381250
-6.588000	-23.058001	801.234985	0.778750	-4.628750	5.022500
11.773000	-30.195000	980.514038	-5.481875	3.775625	-0.481250
44.469002	-17.019001	996.069031	-0.892500	4.878125	-10.740625
8.174000	-25.071001	1116.787964	32.493126	3.399375	-8.557500
102.236000	70.943001	1022.238037	53.611252	9.642500	-13.995625
-15.128000	73.383003	1044.320068	40.950001	-3.753750	0.966875
136.945007	72.346001	1092.021973	12.613125	-27.868750	-0.796250
114.497002	76.189003	1118.862061	13.523125	27.903749	5.499375
103.516998	118.766998	1219.207031	-22.290625	10.985625	2.913750
-46.726002	95.221001	1428.802979	-43.688751	-0.332500	-6.391875
-114.131004	7.503000	1561.112061	-30.205000	-17.408125	-19.915001
-125.233002	144.447998	1523.963013	30.865625	-32.042500	-9.340625
66.306999	187.270004	1313.573975	28.931875	-37.034374	-2.839375
85.400002	132.003998	1312.049072	5.031250	7.021875	7.205625
100.162003	91.256004	1309.730957	-6.610625	17.508751	19.862499
54.351002	49.288002	1188.218994	-16.279375	-16.760626	27.453125
51.728001	39.223000	1098.305054	-11.261250	-0.441875	6.798750
27.632999	35.319000	1102.941040	-9.883125	-25.480000	-3.631250
45.811001	52.033001	1086.104980	1.833125	-11.156250	-14.573125
85.400002	88.450005	1008.635010	5.271875	-12.048750	-14.669375
77.042999	80.703003	919.026001	-8.890000	7.603750	-12.219375
78.750999	57.767002	754.020996	-36.426250	52.968124	5.324375
10.492001	-21.960001	750.788025	-30.502501	25.396875	10.605000
4.270000	-28.914000	795.440002	-25.165001	8.141875	3.530625
1.037000	-55.265999	816.973022	0.595000	39.558750	-2.795625
-28.059999	-3.538000	743.285034	6.138125	17.219999	-5.910625
-3.538000	-21.167000	636.962036	16.848125	18.248125	-2.502500
-42.395000	-0.671000	674.965027	16.834999	18.064375	-0.914375
-74.481003	-0.061000	594.018005	0.634375	7.822500	0.870625
-46.421001	-26.779001	664.473022	13.142500	-9.275000	-8.028125
-35.014000	-9.211000	737.916992	12.184375	-8.505000	-16.218124
-36.050999	24.278000	708.393005	3.438750	-5.993750	-13.230000
-9.211000	-9.211000	752.007996	12.438125	-18.340000	-12.547500
50.202999	17.141001	789.889038	7.818125	-36.513748	6.750625
-0.366000	32.757000	1115.079956	-0.695625	-7.888125	0.354375
47.275002	54.473000	1297.775024	-7.459375	50.885624	-3.736250
44.713001	12.200000	1435.269043	-36.054375	-51.926876	-14.306250
74.298004	50.630001	1430.510986	-10.451875	-30.520000	0.105000
17.446001	5.490000	1404.036987	-6.466250	-30.292500	11.510625
76.982002	-18.910000	1301.922974	6.724375	-15.163750	8.850625
73.016998	-1.830000	1185.352051	16.375626	-13.348125	3.705625
57.462002	24.583000	1046.211060	-2.506875	18.558750	-3.154375
59.658001	4.636000	974.780029	-17.031876	26.061874	-2.261875
51.362000	-9.638000	1005.585022	-22.780624	20.982500	-2.804375
36.722000	-47.458000	992.531006	-14.275625	16.270624	-4.676875
40.199001	-34.952999	961.054993	-6.391875	0.643125	-3.692500
41.846001	-28.914000	1010.770020	-1.798125	6.965000	-2.113125
40.931000	-22.631001	1000.460999	-5.906250	2.817500	-2.257500
24.521999	-36.050999	991.859985	-2.489375	-2.708125	-0.590625
26.657000	-31.415001	992.104004	-0.748125	5.110000	1.155000
18.300001	-35.563000	1007.536987	-0.700000	2.423750	2.905000
13.603000	-41.663002	1016.260010	3.325000	5.831875	2.905000
4.697000	-45.750000	1006.622009	-0.275625	-1.754375	3.788750
9.699000	-50.630001	1011.319031	1.623125	4.847500	4.598125
7.930000	-38.857002	1035.901978	0.310625	1.238125	3.193750
9.394000	-47.945999	1020.225037	0.463750	0.621250	2.371250
8.479000	-52.764999	1011.197021	2.314375	10.994375	1.181250
1.464000	-53.436001	1020.773987	-3.635625	-0.586250	-0.227500
2.379000	-33.733002	1005.768005	-4.121250	0.678125	2.104375
5.307000	-32.635002	1008.147034	1.833125	1.806875	1.640625
-5.795000	-35.929001	989.725037	-1.820000	1.089375	2.716875
-9.821000	-40.382000	1016.382019	-2.563750	1.448125	-0.511875
1.525000	-43.798000	993.629028	-6.540625	1.745625	-2.117500
-3.599000	-41.723999	974.231018	-4.230625	1.723750	-3.460625
-8.601000	-22.691999	885.963989	-2.353750	-4.510625	-3.718750
-13.786000	-21.777000	801.174011	8.032500	-0.468125	-4.226250
-32.574001	-16.287001	831.856995	7.516250	5.888750	-3.062500
-9.394000	-49.227001	787.815002	-10.648750	8.435000	-9.992500
-10.309000	-43.005001	827.587036	9.668750	10.241875	-9.130625
11.773000	-39.161999	965.325012	17.281250	12.906250	0.266875
23.241001	-75.945000	926.590027	15.430625	-7.393750	5.656875
59.902000	-3.111000	1025.287964	-8.106875	-15.518125	6.247500
61.427002	-42.821999	1092.448975	-7.306250	18.099375	10.368750
-2.318000	-54.473000	1275.327026	-23.038750	-1.894375	3.228750
-44.652000	-120.474998	1299.971069	-24.858749	-22.124374	-8.986250
-43.310001	-123.647003	1298.506958	-5.184375	-2.891875	-8.741250
-61.366001	-119.255005	1317.355957	8.439375	-16.104376	-10.521875
-12.688000	-61.549000	1380.125000	37.944374	-9.887500	-0.113750
-17.690001	4.331000	1424.349976	34.562500	-21.070000	-1.426250
103.395004	20.496000	1318.759033	21.914375	-11.523750	-3.640000
177.326996	37.027000	1254.404053	-2.625000	-9.275000	5.464375
116.265999	-19.703001	1254.098999	13.352500	-14.647500	20.426874
81.251999	25.254000	1250.865967	8.903125	-18.825624	27.785625
41.174999	69.357002	1301.557007	-14.818125	-9.143750	5.263125
77.042999	-29.097000	1137.284058	-33.744373	-8.421875	0.113750
90.707001	7.198000	1035.901978	-5.433750	45.574375	-11.252500
135.725006	-13.115000	1010.465027	-17.254999	40.687500	-3.806250
12.993000	-0.061000	889.624023	-18.226250	13.794375	7.888125
7.320000	2.562000	825.879028	15.299375	56.638748	-5.446875
26.291000	30.195000	671.244019	-3.101875	47.201874	6.790000
7.015000	-5.978000	578.401978	-9.563750	49.997501	8.478750
9.577000	-21.594000	465.490997	-6.851250	24.810625	9.891875
-78.080002	-32.208000	500.993011	13.361250	20.978125	2.353750
-109.983002	-36.904999	494.039001	14.087500	-14.551250	-2.393125
-77.592003	-105.164001	578.585022	16.003750	-3.399375	-11.974375
-55.693001	-33.184002	706.380005	2.021250	-21.091875	-10.701250
-10.126000	-37.453999	782.934998	-1.137500	-17.333750	-1.579375
-49.715000	-67.099998	830.210022	8.719375	-28.704374	-1.124375
-32.879002	-46.604000	890.966003	11.195625	-11.213125	-20.912500
-10.004000	1.525000	1023.763000	12.079375	-22.723749	-24.342501
20.923000	67.344002	1173.518066	16.502501	3.036250	-8.925000
-87.840004	40.320999	1148.203003	-16.861250	-9.966250	3.486875
9.333000	-1.159000	1322.052979	-9.485000	-24.959375	-11.808125
-2.623000	22.875000	1267.823975	14.503125	32.598125	4.112500
-21.533001	82.228004	1375.244995	-19.495001	-41.615002	9.130625
7.198000	-33.428001	1424.045044	-4.160625	17.565624	6.181875
-9.272000	-23.851000	1240.739990	-8.194375	-32.786251	1.010625
-10.980000	10.980000	1170.773071	-0.341250	5.687500	-7.231875
10.187000	3.843000	1042.672974	-13.024375	1.758750	-7.612500
-0.671000	-14.335000	993.202026	-16.213751	15.780625	-3.053750
-1.586000	-49.227001	958.554016	-11.965625	1.474375	-4.545625
21.533001	-43.675999	922.502991	-1.146250	-2.432500	-1.150625
-12.322001	-19.825001	985.515991	10.088750	1.688750	-3.163125
2.074000	-7.930000	977.647034	1.159375	-1.229375	-1.058750
11.224000	-6.710000	999.973022	4.751250	7.686875	5.573750
-7.503000	-58.804001	1020.835022	2.476250	11.961250	14.682500
-36.600002	-44.529999	1050.420044	2.598750	20.671875	6.755000
-15.921000	-62.341999	1004.914001	-2.244375	5.311250	-1.168125
-30.622000	-21.228001	1040.904053	-4.108125	-5.188750	-1.421875
-20.618000	-32.695999	993.629028	-8.251250	-0.520625	-0.581875
-36.600002	-28.670000	1038.646973	2.896250	0.918750	-1.890000
-18.422001	-4.087000	1010.160034	-1.023750	-10.268125	-0.809375
-34.831001	-15.433001	1029.313965	6.960625	6.076875	2.257500
-40.015999	-28.304001	1034.376953	5.044375	-0.161875	1.579375
-38.796001	-16.958000	1043.039062	3.001250	4.799375	1.246875
-28.731001	-20.374001	988.687988	-8.015000	7.936250	-0.236250
-37.209999	-12.627000	988.139038	-10.084375	8.443750	1.513750
-37.209999	-22.753000	950.502014	-8.408750	4.830000	3.390625
-31.720001	-26.657000	906.338013	-1.106875	6.033125	5.293750
-55.998001	-18.239000	844.544983	2.568125	-0.341250	6.619375
-81.008003	11.712000	662.825989	0.240625	18.659374	8.128750
-71.736000	-48.922001	686.067017	11.243750	29.535625	2.896250
-69.662003	20.374001	850.340027	2.196250	12.468750	-15.308125
-32.390999	33.793999	967.704041	15.395625	29.579374	-7.901250
6.222000	-17.323999	1000.643982	3.578750	-35.437500	4.401250
5.917000	-22.448000	1066.951050	15.540000	-10.215625	17.294374
3.416000	-46.726002	1082.140015	1.920625	-26.495001	24.902500
47.214001	-111.751999	1250.805054	-33.735626	-30.025625	5.836250
-81.556999	-90.889999	1350.967041	-14.809375	-24.263750	-4.025000
-64.903999	-51.056999	1374.635010	-4.296250	-40.420624	-3.539375
-96.319000	-41.846001	1398.791016	8.185625	-21.695625	-1.920625
-22.387001	-26.413000	1435.452026	14.813750	-12.757500	2.620625
151.828995	-33.000999	1396.107056	19.897499	4.703125	2.340625
108.092003	-60.451000	1436.977051	22.876875	23.598749	20.663124
58.865002	-45.993999	1377.380005	18.549999	13.671875	9.699375
-7.442000	24.278000	1313.879028	9.747500	8.911875	6.256250
15.128000	83.447998	1130.025024	-21.420000	-5.801250	-15.977500
-8.906000	81.313004	1129.963989	-17.434376	1.273125	-2.555000
2.989000	28.121000	1113.982056	-16.940001	-12.871250	-7.367500
-10.431000	72.834000	917.989014	-9.926875	9.926875	3.950625
144.630997	-0.244000	971.851990	20.978125	9.362500	-5.018125
80.215004	97.234001	763.049011	11.147500	22.330000	3.985625
-35.075001	18.910000	565.226013	14.411250	53.077499	3.692500
-77.530998	3.416000	587.552002	-10.049375	45.290001	9.270625
-98.087997	-31.842001	535.213989	-22.583750	55.715626	3.010000
-136.029999	-32.452000	521.976990	-10.517500	25.055626	-7.385000
-176.716995	-20.496000	524.356018	1.771875	29.544374	-15.806875
-155.488998	-14.579000	501.664001	7.310625	-15.841875	-21.511875
-84.545998	-31.415001	581.268982	18.917500	-26.162500	-16.651251
-42.272999	-15.982000	842.776001	42.398125	-16.467501	-25.471251
-38.796001	-10.126000	852.841003	9.331875	12.236875	-5.705000
-54.839001	33.062000	1010.221008	-38.381874	-30.651251	-9.555000
8.906000	-69.174004	1145.092041	-49.433125	0.997500	-6.715625
-133.589996	-8.296000	1145.092041	11.873750	2.931250	-7.096250
-47.885002	0.915000	1337.912964	5.075000	-25.725000	4.261250
-6.039000	-25.620001	1064.328003	-20.225624	-26.013750	23.738750
-99.186005	-49.593002	1450.823975	0.870625	26.341875	13.566875
-18.726999	-47.091999	1306.864014	-6.685000	-40.893124	8.023750
-64.781998	-41.174999	1339.193970	15.973125	-8.225000	1.531250
-43.126999	1.464000	1154.058960	12.070625	-30.550625	0.835625
-20.984001	16.469999	1061.094971	7.914375	15.544375	-1.321250
-46.909000	-1.220000	1044.686035	-9.060625	-2.620625	-2.174375
-25.742001	-20.679001	973.742981	-13.055000	9.152500	-4.484375
-18.117001	-33.672001	987.712036	-3.526250	10.233125	-4.326875
-31.964001	-1.708000	985.942993	0.883750	-3.718750	-3.850000
13.237000	-28.975000	967.887024	15.146250	-4.383750	5.341875
-32.818001	-41.602001	1046.027954	9.305625	6.457500	1.850625
-2.379000	-38.979000	1010.465027	0.345625	-6.855625	-2.454375
-10.797000	4.636000	1056.824951	-8.382500	4.838750	-7.643125
-21.533001	-5.124000	1033.766968	-15.531250	0.048125	-8.995000
-10.614000	7.564000	991.311035	-9.730000	-4.186875	-2.165625
-8.540000	-32.208000	1031.815063	1.071875	20.890625	2.948750
-38.857002	-37.209999	1034.133057	4.011875	-6.759375	4.598125
-24.521999	-26.291000	996.252014	9.918125	0.450625	3.027500
-35.441002	-16.104000	1030.107056	1.719375	-3.683750	1.736875
-9.089000	5.856000	1010.708984	-2.021250	0.363125	2.209375
-20.434999	-25.375999	1005.585022	2.926875	2.913750	4.156250
-15.128000	-13.664001	1019.432007	-1.815625	-4.711875	2.935625
-27.267000	-39.466999	1025.227051	-0.581875	4.165000	1.802500
-21.106001	-32.390999	1013.332031	-3.762500	-4.690000	-1.828750
-13.786000	-23.607000	991.921021	-11.130000	-6.838125	-2.327500
0.305000	-41.663002	1008.695984	-7.621250	-0.026250	-1.036875
-10.187000	-56.119999	1035.963013	-6.168750	-11.243750	-2.205000
11.285000	-44.103001	1034.499023	-4.182500	-9.926875	-0.306250
-7.320000	-65.636002	1193.770020	4.208750	-15.697500	-1.903125
50.202999	-46.177002	1560.197021	6.741875	-46.029373	-6.960625
69.357002	7.442000	1522.437988	-14.984375	-36.128750	0.503125
50.813000	-13.603000	1504.138062	16.331875	45.753750	10.198125
49.776001	-12.505000	1274.777954	-9.436875	8.771875	13.496875
93.269005	-41.358002	1048.041016	-24.565624	10.241875	11.606875
62.281002	-31.659000	950.929016	-4.668125	-7.603750	10.819375
73.504997	-51.728001	804.712036	26.215000	0.472500	1.719375
9.028000	-34.282001	753.411011	21.529375	28.209999	-4.322500
6.283000	-63.744999	753.166992	23.309999	43.163750	-9.633750
-33.062000	1.525000	858.453003	6.505625	47.595627	-14.201250
-80.641998	-29.707001	611.830017	-9.467500	63.507500	-0.914375
-130.173996	33.000999	718.885010	87.469376	90.606247	-46.326874
-31.171000	116.205002	707.234009	46.672501	35.700001	-29.837500
-132.919006	59.230999	802.088989	1.741250	-44.668751	4.948125
-118.035004	43.859001	687.470032	14.848750	1.356250	7.363125
-170.556000	73.139000	706.746033	14.131250	3.158750	9.800000
-155.306000	63.989002	720.288025	-20.728750	-19.827499	18.768749
-98.942001	17.995001	618.418030	-39.908749	-13.076875	9.826250
-153.048996	133.956009	684.786011	-21.061251	-50.115623	-5.748750
39.589001	73.626999	692.716003	-4.952500	-63.980000	0.468125
-33.062000	141.154007	726.997986	24.163124	-69.571251	8.054375
-40.382000	68.930000	1049.870972	1.706250	-45.814999	15.802500
0.915000	79.788002	941.351990	-18.458124	-19.000626	5.569375
11.834001	118.584000	1189.317017	-6.024375	-15.369375	-13.234375
-11.834001	141.764008	1214.327026	-14.826875	-23.690624	12.862500
124.500999	16.714001	1263.066040	-17.508751	33.906250	15.386875
37.453999	60.024002	1273.009033	-53.305000	-26.490625	14.249375
115.107002	-142.434998	1393.972046	-18.611250	32.930626	17.141251
-33.367001	-28.182001	1548.240967	-41.439999	-12.775000	-7.406875
-24.461000	-98.697998	1537.749023	8.610000	8.163750	-2.620625
-52.338001	-86.253998	1408.795044	27.881874	-21.735001	-2.441250
47.031002	-0.183000	1239.641968	50.448124	-10.644375	-2.515625
48.983002	11.468000	1224.635986	46.353127	-6.466250	-1.592500
47.885002	61.061001	1169.796997	13.326250	17.338125	-4.799375
50.569000	66.429001	1117.458984	-16.436874	32.768749	-2.673125
42.151001	80.093002	983.320007	-33.355000	26.573750	5.893125
-33.611000	39.161999	918.721008	-33.271873	46.383751	10.465000
-80.031998	15.067000	900.481995	-34.947498	9.625000	-2.038750
-19.580999	-31.354000	786.838989	-16.038750	19.801250	-3.600625
-34.403999	-22.387001	851.926025	-8.693125	13.553750	-9.104375
-20.679001	-28.792000	850.950012	-1.850625	2.931250	-6.663125
-49.837002	-27.694000	932.629028	7.166250	9.830625	-6.763750
-36.844002	-32.695999	934.885986	6.510000	-1.785000	-9.143750
-64.355003	-38.857002	982.588013	17.661875	4.886875	-8.894375
-51.300999	-10.004000	934.215027	13.059375	-7.061250	-9.406250
-62.708000	1.220000	930.616028	7.660625	6.991250	-3.845625
-78.080002	-13.298000	1040.171997	6.746250	6.168750	-2.240000
-58.926003	7.259000	993.994995	-8.474375	-1.417500	0.301875
-89.609001	-16.653000	1044.686035	-4.221875	7.835625	2.830625
-70.150002	-16.653000	988.932007	-3.990000	-4.900000	-0.236250
-84.850998	-34.282001	1009.428040	5.731250	3.482500	0.980000
-81.313004	-18.666000	1042.978027	0.000000	-4.519375	-4.711875
-71.736000	-9.516000	1012.721985	0.135625	2.782500	-3.451875
-84.362999	-1.708000	1016.015991	2.384375	0.691250	-1.811250
-79.361000	7.259000	999.179993	-1.697500	-5.026875	1.907500
-90.951004	-9.211000	1016.199036	-1.491875	4.121250	2.782500
-81.313004	-11.407001	1018.028992	-1.693125	-1.330000	2.629375
-75.334999	-10.980000	1021.627991	-0.301875	-0.192500	2.296875
-81.069000	-23.851000	1013.515015	-2.073750	2.095625	1.933750
-75.517998	-14.091001	1009.306030	-0.406875	-1.522500	0.004375
-87.108002	0.915000	1002.291016	-1.798125	1.015000	-0.455000
-84.240997	2.379000	992.286987	-0.735000	1.916250	0.892500
-82.959999	-11.834001	1015.040039	-5.871250	-6.413750	-1.435000
-97.051003	-33.793999	1151.924072	-0.695625	2.979375	-1.758750
-92.110001	-17.141001	1296.921021	-7.861875	-18.786249	-1.054375
-90.951004	-37.393002	1328.823975	-11.611250	-21.249374	5.197500
-99.735001	-35.746002	1330.471069	-6.562500	-17.718750	10.250625
-80.581001	-41.846001	1291.919067	-6.833750	-13.090000	12.206250
-95.281998	-24.156000	1205.055054	-5.416250	-3.600625	9.270625
-36.844002	-42.639000	1249.951050	-5.726875	-14.800625	11.169375
0.732000	-64.965004	1186.937988	7.975625	14.004375	14.017500
10.675000	-34.587002	1070.854980	12.910625	27.444374	11.252500
74.664001	-42.334000	948.367004	22.881250	63.551250	3.119375
31.171000	-22.264999	671.427002	19.770624	74.239372	-1.133125
-59.475002	24.034000	599.569031	-13.632500	57.553123	10.985625
-161.650009	-14.091001	401.196991	-23.200624	37.568127	5.718125
-173.240005	-24.278000	411.811005	-7.306250	27.370001	-13.103125
-124.928001	-31.659000	378.016998	5.035625	12.337500	-23.047501
-118.950005	-34.098999	412.847992	20.684999	-14.844375	-17.556875
-26.413000	15.616000	572.179993	41.803123	13.890625	-10.508750
-119.194000	-20.130001	663.070007	5.932500	61.599998	15.754375
-110.593002	2.501000	613.598999	-34.492500	22.185625	-15.417500
-133.406998	21.410999	799.161011	-47.718124	-23.471874	-26.407499
-68.625000	-79.117004	1001.070984	-47.136250	-138.740005	-14.835625
-99.917999	-97.051003	1211.765015	-24.933125	-87.040627	-15.395625
-125.965004	-258.579010	1279.718994	-3.338125	-56.153126	8.085000
-86.375999	-176.229004	1177.483032	-14.393750	-71.071877	-11.602500
-126.696999	-188.001999	1263.005005	20.820625	12.105625	6.225625
16.348000	-138.531006	1307.596069	-14.280000	-23.918125	8.920625
-232.593002	-176.290009	1605.398071	-20.553749	28.174999	13.545000
-138.958008	-268.399994	1552.572021	-36.614376	-25.996250	-5.818750
-137.250000	-216.733002	1521.950073	-2.852500	-9.848125	-7.730625
-84.302002	-246.806000	1460.401001	36.636250	-20.370001	-11.558750
7.015000	-106.994003	1345.294067	66.460625	-32.908749	-9.835000
90.341003	4.270000	1278.864990	62.921249	-25.151875	-4.620000
135.481003	63.989002	1287.893066	45.867500	-14.634375	9.524375
163.175003	29.219000	1101.781982	18.353125	-15.566250	25.576250
144.570007	4.392000	1074.088013	9.375625	-10.609375	34.374374
88.511002	-30.378000	860.893005	1.001875	16.638124	23.100000
60.695000	-37.393002	733.708008	-0.135625	58.869999	7.660625
19.764000	-24.217001	659.898010	-31.539375	34.396252	-5.048750
9.516000	-34.098999	725.778015	-14.945000	46.676876	-10.110625
-5.429000	-23.302000	788.059021	-17.276875	1.395625	-11.641875
1.647000	-13.481000	820.023010	-5.324375	1.443750	-5.127500
-8.174000	-14.640000	900.665039	15.754375	6.925625	-0.433125
-34.221001	30.683001	924.028015	14.284375	-27.776875	4.690000
-3.111000	-15.738000	934.458984	20.776875	7.638750	5.661250
-1.586000	-7.442000	1034.437988	22.404375	-25.641874	1.483125
-3.538000	25.437000	983.564026	17.832500	-13.763750	-2.975000
17.568001	34.952999	992.713989	11.436250	-9.905000	-4.917500
44.469002	78.812004	1034.743042	-3.395000	-8.500625	0.153125
40.625999	27.999001	981.551025	-0.398125	-4.025000	1.509375
29.707001	81.801003	1034.743042	2.480625	-10.911250	-3.928750
54.046001	38.735001	1012.721985	-5.355000	6.610625	-1.470000
44.652000	59.902000	1041.941040	-3.150000	-1.548750	-1.601250
38.917999	25.010000	1021.505981	-1.631875	8.128750	2.323125
32.025002	39.650002	1022.177002	-8.155000	-7.446250	3.346875
50.386002	-3.355000	1017.663025	-7.783125	3.692500	4.331250
68.930000	18.483000	1049.016968	-1.373750	2.200625	-1.168125
58.987000	18.544001	1020.957031	0.774375	-0.485625	-1.006250
52.704002	15.738000	964.958984	-1.684375	-6.855625	0.940625
65.514000	17.385000	1008.268982	3.832500	0.240625	0.678125
77.104004	12.139000	1022.238037	-1.981875	-1.120000	-1.553125
71.675003	30.866001	1019.432007	-4.414375	0.853125	-2.996875
61.305000	36.783001	1044.136963	-2.520000	4.891250	-3.167500
44.834999	24.644001	980.880005	-1.251250	-5.766250	0.896875
55.875999	21.777000	1012.661011	0.271250	1.942500	0.140000
55.265999	15.189000	967.033020	1.163750	-3.001250	-0.612500
56.852001	9.150001	943.669983	2.415000	-5.709375	-2.734375
48.617001	20.191000	900.786987	3.740625	-12.215000	-5.075000
38.186001	28.487000	979.843018	0.778750	-15.264375	-1.820000
65.270004	35.929001	1311.805054	-7.446250	-10.084375	13.610625
132.248001	-11.895000	1522.864990	6.103125	-22.190001	1.470000
99.247002	84.667999	1576.484009	28.481251	15.019375	-1.618750
79.971001	134.139008	1466.073975	4.952500	27.790001	-2.305625
89.669998	49.593002	1279.780029	-14.503125	47.880001	4.226250
55.632000	34.221001	1280.268066	-5.827500	40.669998	-1.373750
30.866001	62.098000	1036.817017	-2.270625	28.525000	0.564375
19.520000	68.197998	987.833984	-11.585000	-2.598750	1.483125
19.703001	39.345001	707.783020	30.926874	32.274376	-13.243125
-5.002000	21.045000	651.968018	32.611252	41.671875	-5.687500
-17.812000	-9.272000	545.401001	14.516250	42.109375	6.238750
-50.996002	-45.262001	489.708008	6.238750	16.681875	5.761875
6.832000	-54.167999	576.023010	-6.138125	16.406250	-4.620000
74.298004	-83.997002	659.715027	38.810623	54.582500	-36.658127
-2.867000	133.529007	618.601013	16.231251	-12.416250	-10.399375
-50.813000	112.301003	752.496033	-10.276875	-43.413124	14.888125
-37.209999	55.144001	805.200012	-47.906250	-39.558750	38.106251
-18.422001	-41.418999	801.174011	-29.815624	-27.536249	19.166876
-127.124001	52.399002	750.421997	-26.477501	8.750000	3.959375
-114.070000	142.496002	643.001038	-23.743126	-44.585625	-23.520000
43.798000	12.810000	819.596008	-11.991875	-58.064999	-12.250000
32.330002	86.681000	835.822021	-33.525623	12.866875	-5.849375
70.150002	-73.504997	1047.675049	-91.669373	-57.627499	-5.534375
108.945999	-89.914001	1410.869019	-24.167500	-29.395624	-7.931875
135.237000	-83.752998	1350.601074	-35.000000	10.937500	5.158125
20.007999	-191.783997	1528.660034	-38.937500	-25.930626	4.563125
102.785004	-313.479004	1407.697021	4.738125	4.003125	8.487500
-11.224000	-287.981018	1543.239014	12.481875	-5.219375	4.051250
16.836000	-223.992004	1494.255981	24.254999	-17.600624	-7.376250
14.091001	-139.568008	1469.978027	37.931252	-10.443125	-11.746875
63.135002	-118.889000	1282.890991	46.291874	-6.921250	-13.103125
70.760002	-57.096001	1176.019043	43.456875	-8.570625	-18.777500
98.759003	-27.328001	1058.776978	35.459373	-1.010625	-19.993750
128.710007	20.007999	1062.742065	21.980000	14.350000	-15.833125
121.939003	39.223000	988.566040	8.872500	10.801875	-3.810625
120.353004	51.484001	969.717041	-4.340000	12.490625	2.104375
103.456001	22.997000	947.025024	-12.691875	17.058125	14.258125
69.479004	3.599000	886.452026	-23.931250	25.650625	11.353125
57.584000	6.283000	827.648010	-12.621875	2.100000	5.565000
38.063999	-0.122000	866.687988	-2.152500	21.328125	1.850625
36.966000	-6.954000	907.557983	-0.100625	4.685625	-4.156250
40.138000	8.601000	908.473022	1.715000	-8.141875	-4.720625
38.430000	-9.638000	919.819031	17.018749	13.680625	-2.196250
34.587002	21.410999	953.491028	5.438125	-12.061875	-1.198750
27.572001	-2.318000	996.434998	7.105000	14.673750	3.723125
32.452000	10.370000	1017.296997	2.839375	6.024375	2.708125
27.267000	7.015000	982.893005	-0.651875	8.885625	4.151875
11.468000	2.196000	997.898987	5.359375	0.013125	1.610000
24.156000	13.847000	1036.024048	-1.990625	7.870625	1.461250
20.069000	13.054000	1004.548035	-4.331250	3.780000	1.960000
4.148000	10.065001	1045.600952	-0.350000	7.459375	-3.508750
4.087000	9.760000	998.509033	-6.510000	0.568750	-3.950625
2.074000	12.383000	1028.459961	-7.083125	6.601875	-4.970000
10.370000	3.599000	1019.492981	-8.820000	5.166875	-3.959375
-4.453000	-5.063000	1027.362061	-6.431250	4.786250	-3.075625
-3.294000	-3.660000	993.934021	-9.633750	5.788125	-0.179375
-3.172000	-26.840000	991.127991	-11.003125	3.320625	0.700000
-1.281000	-33.244999	999.179993	-2.108750	0.809375	-1.190000
-0.427000	-28.059999	1003.328003	6.501250	-6.903750	-3.298750
4.270000	-29.036001	1061.521973	9.590000	-4.545625	-2.095625
21.289000	-13.176001	1155.645020	7.651875	-11.624375	0.310625
22.997000	-3.355000	1182.119019	9.043125	-0.743750	3.972500
6.588000	-11.956000	1225.001953	4.252500	-9.253125	4.042500
23.118999	5.368000	1321.992065	-2.380000	-10.001250	2.266250
46.055000	23.363001	1335.534058	-3.701250	-8.684375	11.261250
15.921000	25.925001	1234.945068	-0.227500	-20.886250	19.473125
14.335000	25.864000	1218.718994	-0.459375	-4.160625	19.293751
2.013000	1.403000	1122.704956	3.906875	5.810000	19.149376
3.965000	20.801001	1032.242065	16.633751	38.753750	9.629375
18.239000	62.646999	964.044006	4.108125	45.058125	8.120000
10.736000	-29.097000	774.028992	4.961250	60.720627	10.220000
-13.054000	-15.250000	652.760986	12.276250	44.318748	-2.708125
-40.077000	-11.895000	611.890991	8.789375	50.697498	-5.306875
-74.176003	8.357000	552.660034	-18.287500	33.131874	2.423750
-68.320000	-33.916000	542.838989	-18.948126	37.931252	-4.834375
-82.777000	-15.189000	552.903992	-12.455625	8.426250	-13.146875
-92.049004	12.688000	615.916992	-13.321875	-11.125625	-9.673125
-70.089005	-15.189000	692.106018	9.730000	-14.818125	-4.965625
-97.417000	-8.723001	663.192017	15.728125	-23.922501	-2.104375
-46.237999	-52.154999	723.093994	22.150625	-10.018750	-4.068750
-37.332001	-45.872002	818.192993	10.202500	-3.381875	-12.053125
-56.424999	-1.281000	967.033020	-21.030624	-53.584999	-18.256874
-97.112000	-7.991000	1034.803955	-1.106875	-3.259375	-16.843750
-4.392000	64.050003	1003.389038	-30.275000	-46.523750	-18.068750
-20.496000	-1.708000	1236.104004	-0.113750	-10.377500	3.036250
-60.633999	-28.914000	1388.238037	-35.805000	-28.945000	8.141875
-23.363001	-69.662003	1341.511963	-9.922500	-35.831249	10.193750
-57.950001	-62.525002	1400.377075	21.765625	-6.912500	8.395625
-1.586000	-43.737000	1459.242065	-4.449375	-32.431873	4.156250
-19.825001	-53.558002	1390.129028	-26.906250	14.131250	-0.818125
-47.702000	-72.163002	1520.425049	-2.896250	-27.006874	-3.810625
9.394000	-127.246002	1352.248047	21.621250	-11.650625	-6.444375
62.586002	-44.225002	1336.327026	33.945625	-34.759377	-10.998750
112.301003	-11.102000	1318.636963	13.348125	-8.452500	-13.816250
136.639999	-9.882000	1148.203003	-4.900000	13.549375	-6.816250
112.239998	-15.616000	1029.680054	-9.559375	34.969376	11.449375
38.186001	-8.601000	1007.049011	-24.215626	11.541250	20.435625
7.259000	-55.693001	838.750000	-17.670626	18.650625	15.623125
22.387001	-46.177002	779.213989	-7.433125	12.298125	12.700625
-34.587002	-53.680000	794.341980	2.856875	28.673750	6.514375
25.864000	-22.509001	801.723022	-7.280000	-0.157500	-5.158125
11.285000	-44.103001	765.001038	-2.913750	5.858125	-0.415625
-10.431000	-23.607000	939.827026	12.075000	4.987500	-6.195000
1.098000	-28.609001	878.583008	-3.036250	0.026250	-3.955000
-27.450001	-73.321999	956.663025	14.787500	13.610625	-4.602500
-22.387001	-35.563000	970.754028	2.458750	4.121250	-8.911875
-33.855000	-44.957001	1029.619019	10.180625	13.405000	-7.196875
-26.779001	-10.858000	990.700989	1.120000	2.528750	-5.713750
-36.478001	-19.459000	1031.144043	-1.063125	8.850625	0.966875
-46.177002	-12.444000	1024.983032	1.006250	1.570625	2.686250
-50.386002	-42.334000	997.471985	1.592500	2.668750	5.788125
-62.341999	-44.225002	1015.161987	2.082500	0.411250	1.386875
-49.593002	-36.478001	985.272034	-5.425000	3.548125	-0.997500
-57.218002	-25.986000	1030.838989	-2.655625	4.213125	1.881250
-47.396999	-38.917999	1033.523071	-5.057500	-1.321250	1.793750
-55.510002	-57.645000	998.570007	0.210000	6.387500	2.393125
-62.708000	-23.912001	1021.750000	3.858750	8.238125	3.683750
-54.961002	-45.750000	971.973999	-1.898750	-6.221250	2.638125
-61.366001	-31.476000	1021.200989	8.977500	5.460000	-1.841875
-54.046001	-17.568001	1005.096985	4.007500	-6.724375	-0.236250
-47.519001	-22.997000	1011.257996	2.865625	0.883750	0.857500
-45.323002	-17.568001	1010.403992	-1.115625	-3.539375	0.459375
-54.411999	-33.793999	991.311035	5.656875	1.369375	-0.258125
-44.529999	-27.328001	1017.419006	1.938125	-2.738750	-2.870000
-32.695999	-21.837999	1026.203003	4.278750	0.910000	-1.859375
-30.500000	8.479000	1017.663025	-0.083125	-9.384375	0.323750
-27.877001	-28.426001	1142.286011	2.401875	5.652500	0.651875
-52.764999	-18.056000	1366.765991	-0.056875	-35.756874	-2.450000
-47.519001	-37.027000	1365.973022	-9.922500	-34.348125	-5.031250
-25.802999	-13.481000	1384.516968	15.955625	-6.055000	-9.541875
-1.342000	13.847000	1337.608032	1.526875	10.653125	-4.383750
-27.816000	11.102000	1298.933960	2.279375	5.547500	-2.563750
10.675000	26.718000	1069.329956	-11.221875	24.478125	-6.387500
6.405000	-17.446001	971.851990	-9.874375	36.627499	-4.900000
-68.076004	9.211000	832.283997	-19.075001	38.491249	5.932500
-43.920002	-17.019001	743.895020	-17.360001	19.884375	1.141875
-50.020000	-13.054000	641.963989	-0.183750	26.206249	-1.246875
-48.799999	-33.855000	653.859009	6.873125	6.107500	-6.615000
-60.817001	-38.247002	587.491028	-2.756250	15.111250	-2.883125
-55.754002	-38.979000	491.598999	3.657500	10.998750	-1.338750
-55.388000	-20.984001	541.436035	10.876250	8.347500	0.848750
-60.573002	-36.539001	720.288025	11.589375	6.164375	-0.529375
-51.056999	-0.061000	706.684998	10.998750	-13.558125	-6.860000
-111.325005	-12.993000	754.936035	26.451250	1.715000	-5.770625
12.444000	-20.007999	836.005005	37.725624	-2.607500	-14.608125
-90.341003	26.413000	817.338989	20.260626	-8.671250	-13.523125
6.100000	73.871002	1031.265991	-3.823750	-51.108749	10.745000
14.335000	12.932000	887.489014	-32.475624	-78.811249	9.515625
35.501999	-2.135000	1228.417969	13.444375	-83.650002	13.636875
14.091001	57.522999	1173.030029	18.602501	-10.570000	6.794375
37.820000	89.059998	1256.782959	-15.050000	-35.459373	13.361250
60.024002	73.016998	1423.557007	0.280000	0.520625	17.823750
76.067001	20.862000	1468.391968	-2.590000	15.045625	19.004999
-39.955002	93.818001	1684.270996	-34.715626	-16.397499	9.848125
26.657000	14.030000	1593.197998	-21.406876	14.113750	-1.701875
21.472000	-4.880000	1563.796021	7.673750	16.887501	-5.053125
38.857002	6.283000	1338.828003	39.217499	-1.023750	-9.384375
81.862000	46.970001	1235.555054	36.719376	6.028750	-12.026875
73.016998	86.803001	1183.765991	8.640625	2.616250	-11.501875
93.878998	42.272999	994.483032	-20.803125	-7.800625	-3.027500
72.163002	35.868000	1025.714966	-30.773750	14.030625	-5.674375
78.202003	-25.193001	844.606018	-29.045626	21.573126	1.710625
35.929001	-22.997000	702.658997	-6.256250	8.728125	6.055000
4.880000	2.989000	714.859009	-7.805000	27.903749	-5.525625
26.413000	-8.906000	778.908997	-8.911875	19.486250	-1.382500
-27.328001	-31.781000	759.267029	-15.588125	13.851250	-1.198750
-16.226000	-2.135000	850.889038	-0.542500	20.908125	-0.577500
-48.494999	-5.551000	944.950989	-5.280625	32.668125	3.010000
-35.014000	-36.112000	948.916016	-4.291875	-13.426875	3.714375
-56.303001	-34.647999	1001.376038	6.671875	12.026875	2.918125
-33.244999	-30.805000	1022.359985	3.618125	-13.825000	-0.476875
-49.348999	-30.256001	1057.435059	-1.404375	7.905625	-3.263750
-47.091999	-30.988001	996.069031	-1.710625	-14.306250	-3.447500
-44.225002	-33.428001	1023.580017	5.337500	8.190000	-4.475625
-48.617001	-20.191000	1041.270020	5.420625	-5.293750	-5.403125
-34.282001	-4.697000	984.967041	-4.217500	-6.020000	-2.196250
-57.401001	-29.280001	1030.167969	-1.176875	7.809375	-0.056875
-49.410000	-24.521999	1012.112000	-9.887500	-4.261250	2.791250
-47.458000	-28.304001	1039.683960	-5.101250	5.748750	0.966875
-41.053001	-41.174999	1002.962036	-4.344375	-5.976250	3.123750
-53.741001	-39.711002	1005.950989	3.801875	11.344375	1.251250
-50.691002	-22.814001	976.671021	-0.350000	-11.265625	2.520000
-58.865002	-37.393002	1017.236023	3.675000	9.310000	1.316875
-44.347000	-19.398001	1032.302979	-5.333125	-10.823750	-0.210000
-47.275002	-34.587002	1012.661011	0.818125	7.678125	-1.575000
-57.096001	-24.948999	1006.866028	-2.174375	-9.563750	-0.905625
-50.142002	-37.637001	1029.253052	11.095000	-5.683125	3.189375
-44.408001	-24.948999	1192.306030	15.465625	-14.621250	6.982500
-65.514000	-0.671000	1315.160034	4.676875	-9.953125	16.248751
-66.489998	22.204000	1311.988037	14.301875	-20.811874	13.313125
-87.047005	0.244000	1341.390015	21.013124	-17.211250	9.970625
-45.506001	52.704002	1351.454956	14.354375	24.355625	-0.634375
-48.739002	41.968002	1209.568970	-1.728125	31.574375	-1.986250
-3.904000	26.718000	988.809998	-0.844375	21.507500	-2.590000
2.928000	27.084000	848.570984	13.842500	24.587500	-1.330000
-16.287001	8.723001	679.601013	25.235001	27.400625	-5.980625
-24.034000	17.873001	527.893982	16.528749	42.402500	-16.852501
3.477000	42.090000	531.065979	-2.808750	22.986250	-5.831875
2.562000	-13.054000	521.427979	-15.850625	28.503124	-1.623125
-11.102000	2.745000	552.660034	-16.834999	24.880625	-4.388125
-48.922001	5.002000	623.481018	-15.566250	11.156250	0.625625
-131.759995	61.732002	648.552002	-14.914375	12.941250	-4.497500
-91.927002	-38.430000	705.892029	22.491875	-2.646875	-5.871250
-128.770996	43.920002	852.353027	-31.106251	-76.413750	-23.384375
-48.861000	-7.991000	925.553040	-17.036249	-43.981876	-13.151250
-62.952000	-0.610000	1000.400024	-9.266250	-18.812500	-8.863750
9.943000	-39.223000	1104.832031	27.299999	-16.458750	7.017500
-94.611000	19.642000	1305.034058	50.806873	-29.645000	18.891251
-42.334000	53.375000	1219.328979	-8.605625	-46.200001	0.004375
-22.264999	12.566000	1276.119995	9.016875	-59.255001	7.341250
84.607002	114.131004	1234.151978	-4.033750	12.503750	6.803125
-66.794998	15.372000	1520.058960	-22.666876	0.713125	3.854375
-27.389000	152.988007	1518.046021	-48.921249	-15.203125	-11.073125
-32.025002	-10.431000	1535.308960	-1.124375	-10.202500	-0.402500
-10.492001	40.625999	1488.094971	20.440001	-2.419375	-5.341875
55.021999	55.998001	1298.506958	20.081249	-2.034375	-0.625625
71.187004	48.861000	1258.307983	11.379375	-0.980000	8.299375
60.633999	28.365000	1214.571045	3.438750	5.031250	14.428750
92.354004	-11.590000	1058.776978	-6.418125	-18.410000	18.851875
33.428001	8.052000	930.859985	6.759375	2.301250	20.864374
50.935001	31.415001	959.652039	3.854375	41.706875	-5.600000
59.719002	20.740000	814.228027	0.091875	15.050000	-10.539375
15.738000	36.478001	766.587036	2.568125	43.098125	-14.686875
1.220000	30.988001	700.890015	-13.641250	16.861250	-21.573126
12.444000	32.574001	704.794006	-17.329374	12.775000	-14.472500
-27.511000	0.915000	836.309998	-22.876875	22.089375	-14.013125
-23.424000	25.193001	849.303040	-29.216249	2.961875	-9.183125
-31.232000	-24.278000	843.934998	-11.873750	13.597500	-7.118125
-35.624001	-21.716000	983.625000	-7.315000	-16.861250	-3.456250
-53.008999	-36.478001	1025.531982	-7.643125	4.983125	-0.507500
-45.262001	-58.865002	1038.219971	4.742500	-5.643750	2.563750
-48.494999	-41.723999	1058.045044	10.570000	-10.303125	-0.358750
-22.387001	-26.291000	1032.242065	13.702500	-8.421875	3.198125
-23.851000	-9.089000	1045.052002	9.568125	-4.309375	3.731875
-18.422001	-25.315001	967.338013	1.198750	-3.508750	4.073125
-41.174999	-1.098000	1060.119019	7.564375	-1.855000	0.227500
-31.110001	-4.758000	983.380981	-6.628125	-9.371250	0.551250
-28.548000	-3.233000	1024.556030	-2.563750	5.079375	1.426250
-1.525000	-9.455000	1010.648010	-10.495625	-6.461875	1.448125
-10.553000	-13.847000	1061.583008	3.123750	4.519375	-0.533750
-3.172000	-15.311000	1020.103027	-0.376250	-3.771250	-2.086875
-12.993000	-23.912001	998.997009	3.338125	4.900000	-0.315000
-25.925001	-14.945000	1045.784058	8.855000	3.683750	-2.086875
-10.309000	-4.697000	996.496033	-3.648750	1.631875	1.150625
-25.437000	-8.845000	1021.750000	-2.756250	1.903125	2.966250
-3.233000	-24.156000	1013.575989	-1.820000	5.333125	2.253125
-1.586000	-21.106001	1003.572021	1.036875	-5.595625	2.874375
-19.459000	-10.614000	1025.287964	5.954375	-1.273125	4.361875
-12.383000	-10.675000	1033.279053	0.752500	1.710625	0.503125
-16.653000	3.111000	1054.202026	-0.455000	-2.261875	0.993125
-22.631001	7.015000	1188.828979	7.310625	2.113125	2.852500
-36.539001	5.978000	1163.514038	-3.368750	-10.740625	4.983125
-34.709000	33.184002	1239.641968	-3.915625	0.428750	11.510625
-47.153000	36.417000	1274.900024	-5.556250	5.831875	10.342500
-43.310001	22.264999	1271.239990	-10.893750	20.304375	9.406250
-89.426003	2.867000	1217.437988	-12.840625	32.873749	8.728125
-79.605003	-21.350000	1062.802979	-5.499375	12.031250	8.789375
-93.635002	-22.264999	1014.186035	9.345000	10.692500	2.366875
-73.200005	-41.114002	871.567993	5.525625	16.139376	6.203750
-92.659004	-24.217001	803.552979	17.924376	20.278126	1.277500
-62.708000	-29.097000	713.395020	16.397499	35.743752	-7.630000
-32.513000	-9.150001	655.078979	-5.184375	32.318127	-3.981250
18.544001	-4.941000	557.052002	-10.815000	17.080000	0.673750
13.664001	-83.142998	629.276001	-12.149375	8.859375	8.246875
-65.879997	-54.351002	589.931030	-23.568125	-13.383125	11.213125
-59.475002	-52.216000	671.488037	-14.787500	-4.956875	1.592500
-72.651001	-63.684002	730.963013	-12.035625	-16.244375	-5.880000
-57.096001	-19.703001	784.338013	-2.450000	1.378125	-7.774375
-19.153999	4.819000	812.031982	1.946875	-14.831250	-10.381875
-45.811001	-10.187000	917.867004	-12.744375	-17.500000	20.444374
-34.952999	-130.479004	1111.359009	-14.835625	-41.177502	2.581250
-78.445999	-61.549000	1099.586060	-14.354375	-19.433750	-1.015000
-92.170998	-119.376999	1195.539062	14.293125	-21.971251	-19.070625
-78.080002	-55.815002	1116.727051	0.017500	-32.235001	-21.778749
-40.564999	-88.328003	1275.998047	26.643749	-19.403126	-13.536250
18.361000	-91.012001	1313.269043	-4.462500	-25.200001	-11.615625
12.444000	-77.470001	1482.910034	-3.316250	-29.889999	-19.713751
25.864000	-47.458000	1448.078979	-7.367500	-6.728750	-2.839375
-12.749001	-118.950005	1525.732056	9.572500	-10.276875	0.463750
14.579000	-88.876999	1378.355957	24.110624	-8.133125	-1.675625
73.931999	-28.670000	1198.161987	49.179375	-16.764999	-4.396875
75.517998	44.408001	1185.291016	48.173126	-15.841875	3.320625
87.840004	36.417000	1077.381958	22.579374	1.728125	6.540625
93.208000	51.850002	1028.216064	20.247499	14.166250	7.393750
119.987000	62.037003	1014.002991	1.868125	26.035625	10.583125
73.626999	41.297001	903.226990	-29.461250	46.318127	11.077500
28.731001	14.823000	813.617981	-23.848125	38.985626	6.391875
-7.137000	19.215000	818.924988	-22.977501	28.214375	-0.135625
-10.675000	-11.651000	774.700012	-30.261875	35.371876	-2.835000
-24.644001	-35.929001	816.057983	-21.962500	31.075624	-6.496875
-54.229000	-48.739002	927.992981	-20.383125	9.406250	-15.413125
-59.719002	-38.430000	904.630005	-11.033750	6.426875	-15.846250
-59.414001	-53.618999	976.061035	17.040625	-13.531875	-16.686251
-62.769001	-24.095001	1025.531982	10.920000	-5.420625	-11.445000
-43.249001	-18.361000	1001.315002	8.260000	-11.025000	-4.641875
-60.329002	-27.572001	1037.000000	9.078125	9.896250	2.765000
-54.961002	-19.886000	997.471985	0.161875	-16.747499	3.176250
-55.265999	-37.576000	1062.681030	10.434375	6.475000	2.839375
-62.646999	-6.405000	1036.755981	-0.533750	-12.643750	2.940000
-60.389999	-28.548000	1028.582031	4.729375	4.720625	1.684375
-44.408001	-12.139000	1024.006958	-4.606875	-4.847500	-3.443125
-39.894001	-16.469999	1013.270996	-4.790625	1.435000	-4.121250
-41.968002	-5.734000	1010.708984	-14.332500	-8.430625	-3.360000
-40.260002	-34.221001	1011.257996	-8.382500	4.147500	-0.507500
-29.219000	-35.441002	1028.520996	-1.780625	-4.418750	-0.087500
-40.260002	-37.393002	1027.972046	5.298125	-3.504375	0.560000
-25.925001	-12.993000	1005.218994	2.953125	-2.611875	2.467500
-36.966000	-32.695999	1001.742004	7.048125	2.668750	2.642500
-42.090000	-21.045000	1020.103027	6.317500	-3.158750	0.717500
-29.585001	-26.779001	1018.455994	5.757500	-5.153750	-1.666875
-18.177999	-8.235000	1089.155029	8.321250	-8.973125	1.028125
-7.991000	4.819000	1100.623047	-1.395625	-8.124375	2.760625
-11.346000	-0.122000	1246.596069	-3.985625	-4.860625	0.555625
-16.836000	-5.124000	1318.820068	1.133125	-12.530000	2.388750
-25.864000	14.945000	1409.770996	9.830625	-19.643749	1.675625
-29.524000	20.923000	1451.067993	35.402500	22.959999	-2.021250
-30.073000	101.748001	1182.790039	7.516250	15.693125	4.808125
-59.719002	61.610001	989.237000	-0.472500	40.499374	10.399375
-35.746002	43.188000	1002.291016	-15.106875	12.223750	5.127500
-36.966000	-21.533001	845.277039	-11.357500	24.688126	6.916875
-76.799004	41.723999	778.359985	6.177500	53.641876	3.981250
-54.107002	-43.005001	671.182983	11.532500	28.551250	5.525625
-107.299004	-15.494000	610.914978	15.185625	18.803749	1.876875
-117.425003	-44.774002	541.984985	-3.495625	13.488125	-0.170625
-5.856000	-34.160000	624.335022	-11.655000	9.476250	-1.627500
-38.186001	-26.230000	616.161011	-11.488750	-0.459375	1.605625
-38.552002	-13.176001	715.346985	-10.933125	-37.721249	7.026250
-48.190002	-61.427002	793.182983	-5.263125	-36.242500	5.131875
-41.480000	-46.665001	816.424011	7.949375	-19.473125	1.876875
-25.864000	-5.002000	742.736023	3.793125	-35.258125	-3.906875
43.554001	9.333000	958.919983	27.496876	-24.591875	10.447500
50.020000	-2.379000	845.155029	7.704375	-59.718750	8.032500
-8.540000	60.938999	1143.078979	22.115625	9.454375	18.200001
91.072998	69.540001	1036.878052	14.743750	-55.125000	11.418750
-39.955002	65.391998	1165.709961	-7.958125	3.758125	12.897500
-41.602001	105.712997	1317.295044	-9.366875	31.154375	-1.658125
3.416000	77.835999	1237.079956	-37.799999	13.536250	5.162500
-99.917999	19.398001	1495.292969	-64.850624	44.799999	-5.700625
-110.593002	-78.385002	1397.327026	-56.026249	25.694374	-9.432500
-121.634003	-134.932007	1483.947021	-42.621250	-0.140000	-27.877501
-108.153000	-181.597000	1465.586060	-1.710625	-18.068750	-26.009375
-35.990002	-100.223000	1255.258057	13.011250	-20.247499	-21.879375
0.183000	-51.789001	1186.510986	16.143749	-7.665000	-11.217500
-9.638000	-63.806000	1149.728027	18.825624	1.596875	2.375625
2.928000	-59.230999	1025.104980	28.984375	-4.020625	7.175000
0.488000	-48.312000	1005.341003	15.649375	27.186251	10.946250
-27.023001	-44.042000	884.744019	9.541875	11.265625	4.221875
-63.440002	-32.390999	881.328003	6.195000	34.181873	-1.960000
-57.889000	-15.067000	881.816040	-5.464375	31.412500	-3.517500
-71.492004	-22.387001	833.077026	-2.686250	29.168125	-8.614375
-104.676003	-23.973000	877.119019	7.721875	18.178125	-7.385000
-92.232002	-12.505000	875.166992	20.816250	-0.411250	-9.030000
-98.881004	19.215000	904.447021	24.311874	1.789375	-8.365000
-123.708000	27.632999	943.853027	26.359375	12.945625	-7.616875
-105.347000	46.421001	1047.308960	-2.375625	-7.280000	-5.442500
-94.488998	48.373001	937.752991	-12.792500	4.392500	0.551250
-142.679001	14.579000	1043.832031	3.045000	7.485625	2.445625
-146.705002	11.102000	1002.962036	-5.149375	-4.340000	0.691250
-137.494003	-2.867000	995.764038	-2.734375	4.169375	-0.529375
-147.253998	9.211000	1041.574951	-3.784375	0.175000	-3.451875
-132.369995	3.721000	993.690002	-7.608125	-1.903125	-0.787500
-147.681000	-4.392000	1035.597046	-5.276250	-7.266875	-1.522500
-135.115005	4.148000	965.812988	-5.613125	1.015000	-0.013125
-132.431000	2.318000	1008.574036	-5.328750	0.100625	1.159375
-120.414001	-3.172000	999.668030	-5.031250	-4.025000	2.660000
-129.807999	-15.311000	999.606995	4.895625	-6.116250	1.754375
-111.203003	11.285000	987.590027	-0.612500	-15.321250	2.887500
-103.761002	4.880000	1006.134033	4.978750	-5.648125	3.609375
-88.328003	4.270000	1021.750000	-2.226875	-10.561250	5.674375
-91.500000	-4.697000	1000.522034	3.810625	0.319375	2.699375
-87.718002	4.636000	1035.291992	-0.511875	-12.035625	3.110625
-85.522003	23.302000	1005.585022	1.421875	-0.485625	-0.148750
-74.907997	15.677000	1031.327026	-1.898750	-7.840000	0.446250
-77.958000	6.710000	1024.129028	-0.783125	0.363125	2.082500
-73.749001	1.708000	1024.433960	-2.813125	-7.245000	-1.820000
-60.146000	0.122000	1018.882996	-4.707500	2.047500	-0.258125
-68.685997	-3.904000	1024.494995	3.412500	-0.538125	-2.397500
-72.528999	9.394000	1012.234009	-3.263750	-6.921250	-1.513750
-63.135002	-15.372000	1075.979004	-3.473750	-0.227500	-1.500625
-91.256004	-22.204000	1175.652954	0.240625	-11.523750	-3.364375
-104.493004	-33.000999	1333.886963	-1.855000	-19.613125	-3.753750
-100.589005	-10.492001	1364.509033	-9.900625	-0.923125	-10.237500
-96.868004	27.145000	1270.874023	-10.801875	-3.517500	-15.382500
-119.255005	30.316999	1303.509033	-2.493750	29.312500	-13.356875
-31.415001	1.403000	1120.936035	-3.390625	35.153126	-8.443750
-63.257000	28.914000	1102.087036	-11.961250	30.961876	18.917500
-84.545998	-54.167999	847.778015	8.281875	29.868126	21.621250
-54.961002	-49.471001	961.421021	8.356250	25.147499	18.077499
-131.576996	-35.868000	722.971985	-1.233750	26.748751	24.535000
-146.583008	-36.050999	597.677979	7.490000	43.365002	17.543751
-141.764008	-23.118999	535.885010	-5.245625	29.430626	10.438750
-129.137009	-73.504997	453.901001	-8.903125	17.736250	8.990625
-107.237999	-80.703003	479.643005	3.640000	9.681875	-8.286250
-90.951004	-0.122000	460.794006	12.770625	-6.523125	-9.528750
-58.804001	-18.056000	673.135010	-0.958125	-38.145626	4.230625
-111.141998	-54.534000	599.874023	-6.759375	-15.557500	12.871250
-110.959000	-4.148000	811.848999	-18.300625	-13.807500	-11.243750
-45.872002	-88.328003	856.867004	-18.532499	-55.689377	-16.379999
-16.104000	-23.668001	883.218994	-17.898125	-49.100624	-27.339375
-92.720001	-93.757004	1320.223022	22.889999	-68.171249	-16.568125
-69.967003	-45.567001	1197.857056	21.109375	-5.775000	-10.285625
-5.063000	2.928000	1220.488037	19.372499	-50.916248	14.455000
-55.998001	17.263000	1388.969971	9.021250	0.358750	29.951250
-105.042000	-21.410999	1456.557983	-44.660000	32.086250	1.487500
-53.375000	-96.258003	1355.541992	-53.475624	-17.578751	-13.418125
-80.093002	-96.014000	1481.750977	-19.263124	10.640000	-15.001875
-63.074001	-142.007996	1434.049072	6.160000	-26.635000	-21.498751
-8.784000	-93.635002	1433.134033	27.680626	-9.012500	-18.690001
20.007999	-45.567001	1302.716064	19.595625	-15.439375	-16.572500
41.968002	-58.316002	1247.755005	24.290001	-9.401875	-13.890625
73.626999	-28.426001	1199.808960	11.055625	8.898750	-12.324375
72.041000	-41.114002	1144.359985	7.577500	4.423125	5.849375
63.806000	-47.214001	1079.699951	4.580625	26.967501	15.793750
34.038002	-8.845000	978.928040	9.331875	28.966875	22.255625
14.396000	-40.382000	859.734009	4.510625	18.506250	25.125626
-37.027000	-56.913002	802.150024	-19.648125	11.935000	11.003125
-29.829000	-40.320999	686.981995	-13.413750	13.374375	-0.249375
-79.666000	-37.332001	742.004028	-3.994375	30.025625	-13.330625
-50.142002	8.174000	742.674988	-13.685000	-13.129375	-27.457500
-70.272003	-2.928000	848.815002	16.555000	29.929375	-21.923124
-52.582001	12.444000	892.002991	13.448750	-19.363750	-13.750625
-42.882999	-1.525000	900.726013	16.401875	-4.510625	-2.778125
-42.577999	-3.294000	999.057983	32.724998	-17.430000	0.227500
6.832000	24.644001	1074.088013	13.750625	-19.600000	12.954375
-7.930000	0.122000	1043.222046	-3.412500	-15.054375	14.940625
-26.352001	-10.370000	1029.070068	5.547500	-9.078125	6.396250
-17.507000	10.431000	1036.634033	-9.415000	4.226250	2.270625
-13.725000	-1.403000	1003.816040	-8.426250	-9.664375	-0.100625
-25.375999	-16.653000	1043.953979	5.853750	15.023750	-3.185000
-27.572001	22.021000	1095.072021	0.813750	-8.019375	-5.985000
-20.252001	13.420000	1024.860962	-2.450000	9.957500	1.977500
-20.130001	19.276001	1016.138000	1.456875	9.187500	3.718750
-12.444000	4.941000	962.275024	18.195625	17.985624	1.220625
-39.223000	53.985001	1079.029053	15.321250	4.939375	0.564375
-7.320000	43.431999	960.567017	-11.650625	-5.827500	6.654375
-44.285999	16.226000	999.729004	0.161875	4.646250	2.397500
-29.097000	20.679001	1036.634033	-8.776250	-13.645625	0.857500
-21.655001	9.638000	1169.369995	-15.601250	-13.326250	-0.700000
-3.355000	18.910000	1316.502075	-27.396250	-20.881874	3.303125
-25.071001	48.739002	1419.836060	-23.743126	-55.116249	10.990000
55.815002	-40.931000	1327.055054	33.901875	-10.478125	10.950625
37.881001	51.484001	1252.756958	31.705626	5.035625	5.289375
30.012001	33.306000	1077.625977	12.495000	25.256874	3.613750
11.712000	52.338001	1001.192993	-0.262500	39.970001	2.590000
17.446001	18.605000	962.580017	-1.439375	53.970001	-3.193750
26.108000	-22.143000	870.043030	7.000000	75.311249	-4.060000
45.018002	-9.516000	890.051025	6.094375	61.285000	-5.503750
-106.201004	32.574001	506.421997	-14.315000	49.743752	12.363750
-129.990997	-10.797000	549.549011	-3.552500	40.363750	9.931250
-109.738998	-26.901001	515.572021	-6.015625	4.768750	-2.716875
-162.931000	0.915000	496.235016	-4.790625	-3.928750	-10.430000
-153.171005	14.030000	546.010986	-12.320000	-32.335625	-15.019375
-59.658001	-51.667000	663.130981	-4.270000	-23.703751	-14.870625
-117.486000	-42.577999	789.950012	-10.994375	-10.876250	-26.201876
-79.605003	-29.707001	685.395996	-12.792500	-51.703751	-19.696251
-74.298004	1.159000	652.090027	37.008125	-34.186249	-16.423750
129.137009	-36.295002	1085.677979	53.458126	-47.967499	3.403750
-2.501000	64.721001	1196.942017	-12.429375	-101.180626	1.846250
-10.065001	76.737999	1295.334961	-21.616875	-26.333124	-1.356250
69.905998	23.485001	1259.650024	-25.322500	-8.785000	-7.975625
-8.601000	20.557001	1288.930054	-13.658750	18.270000	-5.280625
83.570000	-7.320000	1278.193970	-33.158127	3.215625	-2.563750
24.583000	-94.306000	1422.276001	-46.453751	-0.249375	-5.941250
-11.407001	-122.061005	1509.811035	-39.637501	7.774375	-9.795625
-29.463001	-181.597000	1485.105957	-17.451876	-4.663750	-8.141875
-10.187000	-164.212006	1402.207031	29.146250	1.373750	-2.730000
1.281000	-91.561005	1270.141968	46.326874	-10.618125	4.948125
33.489002	-38.491001	1248.120972	53.383751	-0.459375	11.904375
30.012001	9.211000	1220.365967	32.160625	1.688750	13.020000
37.881001	20.252001	1148.081055	21.376249	7.266875	12.394375
15.860001	50.569000	1092.692993	8.137500	5.945625	9.800000
29.341000	17.507000	1046.211060	-13.011250	14.603750	7.328125
6.649000	11.041000	956.419006	-19.359375	22.452499	1.260000
7.503000	-2.989000	823.255981	-16.200624	22.168125	0.332500
-10.553000	-12.078000	698.999023	-6.593125	20.050625	-0.866250
4.758000	-10.187000	766.403992	0.284375	19.267500	-1.535625
-25.559000	-6.771000	727.973999	-8.181250	6.908125	1.238125
-49.288002	-3.904000	843.630005	0.857500	6.685000	-0.910000
-56.059002	-7.076000	810.445984	0.249375	-7.411250	-3.053750
-49.348999	-11.163000	989.419983	14.380625	-3.740625	-3.255000
-41.541000	3.111000	988.871033	3.031875	-9.349375	0.940625
-46.116001	-21.045000	995.398010	6.155625	-9.883125	0.625625
-12.383000	4.575000	1043.526978	7.656250	-11.523750	-4.536875
-27.511000	27.572001	1029.009033	2.541875	-2.843750	-0.805000
-31.720001	25.559000	1038.098022	-7.175000	-1.163750	1.448125
-33.367001	-7.625000	1009.611023	-5.530000	5.232500	1.763125
-25.254000	6.466000	1045.967041	-3.430000	-0.883750	-0.555625
-19.459000	-5.795000	1024.433960	-1.146250	-3.683750	0.573125
-24.888000	8.479000	1009.733032	3.075625	4.589375	0.105000
-24.521999	15.067000	996.434998	-0.634375	-2.038750	0.988750
-21.533001	-1.220000	993.812012	-0.665000	-0.188125	2.139375
-10.614000	-10.065001	1038.219971	2.165625	0.590625	-0.809375
-9.577000	12.261000	1015.833008	-0.507500	-2.966250	0.612500
-11.773000	19.764000	1018.517029	-4.016250	5.127500	3.955000
-26.596001	8.967000	1006.195007	-1.190000	-1.303750	4.571875
-24.034000	-1.037000	984.723022	0.704375	-3.753750	0.472500
-5.429000	-0.488000	1012.721985	2.821875	-0.056875	0.074375
-8.418000	5.978000	1024.739014	1.863750	-5.271875	-0.008750
-7.259000	1.647000	994.788025	3.198125	-0.848750	-0.218750
1.769000	20.801001	1020.164001	-0.385000	-2.240000	-0.726250
-3.721000	-3.904000	1014.064026	-2.148125	1.649375	-0.586250
-0.366000	5.734000	1037.061035	-0.144375	0.183750	-2.384375
-3.721000	-3.477000	1004.791992	-1.019375	-2.546250	-0.214375
-9.760000	2.318000	1025.837036	-0.100625	-1.509375	-1.050000
-0.976000	-14.457000	1023.945984	-3.010000	-5.088125	-0.437500
14.762000	4.331000	1054.446045	1.080625	-1.649375	-1.570625
4.819000	-0.061000	1015.406006	-3.928750	-4.843125	-0.748125
12.749001	1.769000	1071.343018	-2.170000	4.195625	-0.183750
4.880000	-7.137000	1092.875977	-3.224375	2.135000	1.680000
26.840000	-18.422001	1214.692993	-1.802500	0.739375	2.813125
-19.215000	18.483000	1268.373047	0.332500	5.241250	4.226250
-41.723999	41.480000	1241.105957	7.595000	24.806250	5.188750
-48.556000	48.494999	1163.453003	-16.471874	1.631875	6.265000
-52.459999	-8.052000	1156.072021	-11.493125	15.920625	3.451875
-61.732002	5.978000	1004.975037	-0.441875	14.415625	-4.046875
-53.436001	-18.910000	1061.521973	19.180000	40.438126	-7.883750
-52.338001	-0.061000	989.237000	14.573125	29.006250	-4.681250
-50.142002	-29.219000	912.255005	0.953750	21.398125	8.701875
-61.671001	-47.763000	867.359009	6.711250	38.946251	6.295625
-96.563004	-26.047001	736.208984	-4.103750	24.543751	5.705000
-93.025002	-44.042000	640.988037	-6.173125	29.176874	0.962500
-81.984001	-56.547001	599.630005	-0.192500	16.699375	-7.826875
-103.456001	-9.089000	522.830994	2.371250	7.748125	-4.423125
-78.995003	21.106001	530.273010	2.870000	-8.531250	-0.271250
-55.205002	11.834001	576.510986	12.232500	-22.553125	7.958125
-64.111000	-3.965000	709.186035	-5.573750	-12.057500	-1.106875
-114.252998	-50.020000	703.817993	-10.220000	-14.507500	-15.465625
-41.236000	-67.954002	823.012024	-15.172500	-29.942499	-39.860626
-58.499001	6.649000	1054.385010	-20.374374	11.191250	-42.590626
-117.303001	-8.357000	1162.171997	-30.388750	-14.140000	-30.756250
-132.736008	-1.159000	1194.868042	-7.835625	-35.621250	-20.571251
-68.014999	-31.293001	1155.035034	25.760000	-57.255627	9.266250
5.185000	-34.098999	1357.372070	8.273125	-55.781250	12.801250
-56.424999	-75.701004	1332.666992	28.735001	-60.886875	29.163750
9.760000	27.755001	1413.187012	-1.509375	-34.930000	19.276251
-11.895000	-27.877001	1453.568970	-23.537500	-23.681875	12.416250
6.893000	-66.673004	1527.440063	-19.166876	-31.858749	-5.565000
87.351997	-12.322001	1452.898071	13.846875	-6.055000	-8.894375
112.728004	-14.030000	1338.950073	27.273750	-8.964375	-2.327500
101.992004	2.196000	1256.661011	19.271875	8.680000	-1.806875
104.493004	7.198000	1199.321045	6.776875	11.633125	-0.511875
56.608002	-13.054000	1172.907959	1.426250	7.555625	-1.872500
87.901001	-22.997000	1087.508057	-4.003125	24.613750	-10.075625
152.438995	7.930000	952.637024	-5.740000	15.417500	-5.180000
66.063004	-4.148000	894.260010	-2.253125	29.645000	3.609375
106.079002	36.660999	693.509033	-30.415001	13.208125	5.836250
-3.111000	-82.654999	724.557983	-14.840000	25.296249	11.602500
-2.562000	-37.209999	774.151001	0.363125	26.066250	2.362500
-7.381000	14.091001	753.716003	-7.984375	-8.955625	2.598750
-7.442000	-17.934000	835.273010	7.288750	11.270000	5.285000
-7.686000	-12.200000	919.392029	5.621875	-9.524375	4.204375
-3.050000	17.507000	915.488037	-1.491875	-9.200625	7.280000
-5.002000	-24.095001	968.741028	7.590625	5.188750	6.934375
3.660000	-24.034000	1025.654053	-1.343125	-24.180626	2.887500
2.440000	-13.542000	963.739014	1.220625	3.495625	4.134375
12.627000	-5.002000	1002.962036	2.646875	-15.631875	0.301875
12.383000	-1.037000	1007.171021	-2.415000	-4.445000	1.876875
30.073000	-8.418000	1040.721069	-14.140000	3.640000	1.658125
40.077000	-41.541000	1089.459961	-12.613125	-1.369375	0.030625
27.755001	-30.134001	1098.427002	3.758125	-3.745000	-4.991875
19.032000	-20.130001	1013.393005	11.331250	-1.395625	-2.183125
24.156000	-26.779001	1052.677002	7.122500	2.121875	0.035000
26.474001	-20.069000	1034.010986	-1.964375	15.763125	-0.726250
30.500000	-16.714001	1013.820007	-7.503125	-3.438750	-0.424375
22.082001	-43.310001	1010.648010	-3.154375	8.846250	0.393750
31.903000	-8.418000	997.166992	-5.241250	0.161875	0.555625
17.995001	-26.535000	981.673035	-0.380625	2.358125	2.401875
14.945000	-24.948999	1013.880981	2.261875	0.109375	-0.035000
12.078000	-15.921000	995.520020	0.153125	-4.742500	-0.350000
5.612000	-32.695999	1009.184021	0.612500	-1.518125	-1.986250
15.616000	-21.045000	1111.359009	-2.174375	-2.673125	-4.095000
14.945000	-35.929001	1172.724976	1.526875	1.098125	-3.771250
-2.806000	-8.357000	1189.500000	6.501250	2.572500	-2.275000
-11.041000	-42.577999	1211.582031	1.925000	9.843750	3.539375
-25.925001	-31.232000	1323.883057	4.545625	9.922500	2.677500
-28.243000	-13.481000	1334.070068	-3.386250	17.766874	5.289375
-70.455002	-25.864000	1241.045044	1.281875	36.093750	3.797500
-56.791000	-16.531000	1157.170044	12.114375	50.911877	0.503125
-50.142002	0.915000	982.100037	9.756250	49.328125	-2.852500
-36.112000	6.588000	763.049011	-2.253125	34.413750	2.533125
-85.888000	7.991000	532.408020	-4.016250	42.035000	10.526250
-122.854004	40.320999	419.436005	-8.220625	47.477501	16.257500
-102.663002	-11.468000	425.475006	-5.044375	13.632500	3.976875
-79.117004	-29.829000	396.500000	3.570000	10.823750	-2.699375
-88.999001	-7.991000	481.899994	9.528750	4.204375	-10.141250
-66.124001	36.355999	585.294983	-9.738750	-21.910000	-8.618750
-60.695000	-0.732000	666.181030	-34.260624	7.485625	2.646875
-23.973000	-62.281002	923.661987	-39.886875	-9.506875	4.204375
-114.131004	-69.784004	1068.536987	-28.861876	-37.502499	-22.631874
-144.447998	-120.169998	1119.228027	2.905000	-67.396873	-21.415625
-161.893997	-71.370003	1173.395996	9.931250	-71.973122	-26.398750
-64.355003	-142.007996	1269.410034	32.978748	-75.683128	-6.457500
-43.310001	-97.234001	1369.206055	23.638124	-24.395000	10.780000
1.708000	-108.153000	1318.088013	-29.614374	-5.477500	-9.782500
-33.367001	-85.400002	1415.443970	-15.181250	18.501875	-8.120000
-60.329002	-13.786000	1393.362061	-27.479376	-7.940625	-13.269375
-30.683001	-138.165009	1294.724976	8.045625	-13.225625	6.291250
-54.290001	-140.117004	1293.810059	22.478750	-20.960625	5.162500
-9.943000	-58.621002	1233.786011	39.694374	-34.453125	6.475000
50.264000	10.980000	1235.677002	37.839375	-23.909374	6.138125
33.855000	4.209000	1306.558960	16.756250	-15.745625	6.234375
97.478004	16.104000	1245.010010	-8.522500	14.105000	5.306875
87.596001	-7.808000	1193.404053	-16.782499	25.129999	9.734375
67.709999	-43.126999	1116.117065	-24.622499	26.626249	3.329375
62.220001	-68.320000	1053.713989	-8.089375	40.906250	0.402500
57.340000	-44.347000	918.843018	2.948750	28.323750	-7.056875
46.786999	-8.113000	805.260986	9.887500	10.731875	-7.393750
40.443001	-5.307000	713.639038	13.895000	19.573750	-6.881875
0.366000	31.598000	664.533997	21.035000	4.655000	-3.946250
15.006001	28.121000	624.762024	15.491875	6.580000	2.896250
-28.121000	-13.237000	906.520996	36.955624	42.704376	3.762500
-43.798000	36.478001	934.337036	-15.303750	-22.868126	1.461250
-64.293999	13.664001	892.552002	-30.034374	-1.977500	4.563125
-61.243999	44.285999	1058.776978	-18.261250	4.869375	-0.406875
-66.001999	-50.630001	1072.745972	-20.960625	-1.010625	-1.089375
-56.119999	-55.265999	1028.032959	-5.464375	1.575000	-10.788750
-75.029999	-0.305000	1031.998047	5.639375	-1.535625	-10.399375
-57.827999	-8.845000	998.447998	-0.367500	-23.358126	-5.910625
-44.347000	-22.143000	1044.076050	6.435625	-0.341250	-0.446250
-43.126999	-19.642000	1032.242065	-4.261250	-18.445000	0.958125
-38.674000	-30.012001	1022.481995	1.828750	1.946875	-0.892500
-28.243000	-16.531000	1012.721985	-4.086250	-12.127500	0.214375
-13.237000	-17.507000	1019.492981	-5.136250	-12.635000	2.808750
17.568001	-31.049000	980.880005	-2.572500	-19.586876	9.288125
6.893000	-53.497002	1045.967041	13.772500	3.434375	6.689375
18.422001	-13.603000	1009.549988	7.888125	-14.612500	2.331875
21.106001	-11.712000	1022.848022	10.797500	4.160625	-0.923125
24.034000	4.941000	1022.177002	-1.338750	-7.708750	-1.106875
39.894001	-3.355000	986.431030	-7.975625	-5.691875	0.603750
40.260002	-16.409000	1004.242981	-10.158750	-3.360000	1.281875
43.615002	-38.735001	1041.087036	-4.060000	-5.744375	-0.704375
53.375000	-34.831001	1107.577026	-5.420625	-15.102500	0.385000
96.014000	-41.663002	1232.932007	-9.559375	-23.721251	5.989375
89.609001	-64.050003	1301.130005	-3.132500	-24.259375	10.832500
83.509003	-23.973000	1349.686035	0.091875	-13.877500	7.468125
97.478004	-20.374001	1245.131958	3.889375	9.498125	0.323750
69.235001	-5.307000	1299.604980	-0.647500	38.434376	0.538125
-18.666000	1.525000	1028.520996	-20.050625	38.093124	5.998125
13.298000	-61.061001	952.880981	20.833750	57.010624	1.303750
17.690001	-43.798000	861.991028	35.612499	59.635624	0.210000
-36.966000	-3.233000	640.866028	29.321251	49.507500	1.995000
-47.885002	-9.699000	598.288025	13.693750	49.083126	5.941250
-78.140999	2.562000	515.755005	13.365625	36.719376	1.273125
-14.335000	-20.557001	505.628998	21.196875	34.825001	-11.711875
-65.453003	23.485001	534.054993	14.993125	29.968750	-9.725625
-51.118000	47.519001	588.893982	5.617500	-36.837502	3.836875
-97.904999	55.144001	588.039978	6.825000	-47.958752	11.589375
-85.278000	41.297001	643.794006	28.726250	-4.886875	6.825000
-67.954002	53.862999	835.395020	-6.833750	-48.654373	12.276250
-5.185000	23.912001	902.678040	-55.807499	-51.008125	-6.540625
2.623000	20.252001	1436.123047	-53.891251	-64.574997	-24.513124
-11.224000	84.302002	1252.329956	-37.161251	-31.714375	-36.373749
-24.827000	56.364002	1313.146973	-8.172500	5.521250	-21.035000
63.806000	31.781000	1251.049072	-43.636250	-45.500000	-6.405000
54.534000	-85.522003	1269.593018	-21.774376	22.575001	3.876250
46.299000	-171.104996	1276.302979	-48.501251	-6.488125	-10.994375
-22.631001	-180.376999	1449.969971	-15.137500	4.326875	-8.303750
-11.834001	-111.325005	1394.032959	16.668751	-15.386875	10.530625
-19.459000	-153.598007	1430.937988	46.348751	-15.754375	15.986250
48.007000	-26.230000	1370.791992	48.304375	-15.421875	13.453125
83.875000	31.110001	1249.951050	33.560623	-5.333125	11.235000
