A_X [mg]	A_Y [mg]	A_Z [mg]	G_X [dps]	G_Y [dps]	G_Z [dps]
15.372000	-27.145000	1002.778992	1.111250	-8.850625	3.110625
13.908000	-35.075001	1005.585022	2.310000	2.086875	4.379375
9.882000	-33.855000	1016.442993	3.084375	-6.111875	4.571875
17.080000	-22.143000	1035.657959	2.791250	3.928750	3.723125
3.233000	-20.374001	1021.932983	2.240000	3.788750	2.200625
3.477000	-31.537001	996.617981	-4.335625	-14.056875	-0.866250
39.528000	-27.450001	992.408997	-4.650625	-9.905000	-0.428750
0.366000	-21.837999	1002.535034	-11.344375	1.522500	5.276250
48.556000	-58.194000	1005.096985	-22.049999	-14.179375	11.996250
98.514999	-43.980999	1064.328003	-4.585000	-19.674376	1.478750
-9.089000	-38.857002	1042.001953	7.533750	17.858749	-17.819374
2.196000	-50.935001	996.862000	5.643750	24.718750	-4.694375
26.413000	-60.573002	1016.077026	1.833125	-3.136875	0.826875
37.820000	-31.720001	1031.937012	6.348125	-8.089375	0.218750
38.491001	-32.818001	1014.918030	5.346250	15.404375	3.456250
7.259000	-35.075001	991.311035	7.231875	15.885625	5.044375
23.912001	-24.705000	1006.134033	6.256250	8.360625	6.208125
-3.111000	-23.668001	1002.901001	-0.021875	9.699375	6.426875
-13.054000	-19.947001	1017.906982	-1.561875	2.843750	4.970000
-7.625000	-26.840000	1044.625000	-5.442500	-17.093124	3.679375
27.023001	-35.014000	1188.218994	2.253125	-19.731251	8.378125
4.087000	-24.521999	1345.964966	22.566250	-22.946875	2.406250
61.366001	2.257000	1334.192017	27.916876	-44.511250	0.201250
54.167999	47.396999	1298.690063	39.523750	-2.086875	3.823750
69.784004	83.631004	1332.118042	29.286249	8.513750	0.756875
32.695999	125.843002	1178.947021	19.586876	40.508125	-4.917500
-2.562000	89.059998	1116.544067	-1.916250	37.751877	-13.982500
19.459000	59.475002	1032.912964	-7.065625	18.488750	-22.356251
21.960001	77.165001	996.923035	-18.151875	18.558750	-23.143749
-20.434999	37.881001	920.612000	-25.331249	12.385625	-15.548750
-81.129997	57.340000	867.481018	-21.376249	27.851250	-17.583124
-43.675999	35.196999	826.428040	-5.005000	38.758125	-22.483126
82.289001	65.209000	865.163025	-17.036249	18.755625	-11.523750
80.946999	9.211000	834.419006	2.900625	12.508125	-2.327500
-7.869000	-18.788000	700.828979	1.531250	40.748749	7.608125
-73.261002	-19.032000	625.554993	-0.879375	37.948750	3.906875
-32.757000	16.165001	578.645996	-18.790625	7.831250	14.315000
-18.788000	-5.063000	557.296021	-22.111250	12.665625	13.501250
-48.007000	-31.415001	597.129028	-12.219375	-0.962500	6.304375
-50.325001	-11.163000	703.452026	-12.648125	-22.036875	3.084375
-47.640999	-41.968002	716.627991	-3.578750	-16.874374	3.106250
-72.041000	-75.945000	755.668030	7.910000	-17.718750	5.280625
-26.779001	-76.127998	717.238037	14.332500	-28.205626	-9.191875
11.590000	-29.829000	970.327026	22.150625	-22.728125	-12.446875
-68.564003	-34.770000	985.820984	-18.812500	-76.619377	-1.382500
27.511000	74.786003	1043.893066	-19.075001	-16.861250	1.903125
-68.990997	6.527000	973.499023	-36.540001	22.014999	7.253750
-36.722000	-51.728001	1214.571045	7.857500	37.563751	4.948125
-48.799999	-16.836000	1636.141968	-14.638750	-86.668747	-7.061250
-70.210999	-106.811005	1639.863037	18.108126	6.553750	1.225000
-48.922001	-55.083000	1548.667969	-1.868125	-7.931875	-4.681250
-45.445000	-106.139999	1445.760986	3.605000	16.060625	1.509375
-62.952000	-92.903000	1301.191040	10.876250	19.665625	1.242500
-43.554001	-56.242001	1061.827026	19.831875	14.218750	-3.788750
2.928000	-12.383000	989.846985	21.310625	3.451875	-3.093125
8.845000	15.067000	955.320984	15.106875	16.371250	-0.914375
-1.891000	17.507000	973.926025	9.800000	0.796250	3.539375
-8.784000	10.187000	987.163025	-3.968125	1.723750	0.638750
-7.564000	5.795000	973.316040	-7.796250	-9.756250	2.183125
-22.264999	7.259000	999.911987	-8.798125	-2.765000	1.561875
-20.618000	14.457000	987.285034	-9.419375	4.646250	2.979375
-7.259000	0.732000	973.864990	-1.185625	-10.053750	2.419375
-2.440000	-5.002000	1005.280029	-0.796250	-4.340000	0.988750
16.287001	-13.115000	991.067017	1.299375	5.180000	0.210000
-6.344000	-30.378000	993.629028	5.543125	4.655000	-2.104375
-2.318000	-15.250000	1009.306030	2.887500	5.534375	-4.051250
-6.405000	-9.455000	1002.656982	-1.439375	2.730000	-3.451875
-21.777000	-14.152000	1003.694031	-3.565625	4.046875	-2.804375
-22.875000	-20.862000	1018.333984	-5.136250	-1.093750	-3.574375
-17.568001	-25.498001	1011.807007	-4.541250	-0.350000	-4.125625
-21.106001	-15.494000	1025.166016	-3.276875	3.635625	-2.524375
-25.925001	-16.653000	1030.777954	-0.752500	-1.242500	-1.601250
-14.701000	-11.163000	1037.792969	1.273125	1.019375	-1.085000
-15.250000	-5.734000	1016.565002	2.428125	3.412500	1.750000
-22.326000	-16.836000	1007.109985	4.755625	2.677500	3.762500
-25.315001	-15.006001	1007.963989	3.355625	2.576875	2.716875
-23.973000	-1.769000	1012.966003	3.416875	1.474375	1.767500
-23.912001	-5.612000	1012.294983	2.756250	2.086875	1.220625
-31.110001	-4.758000	1011.746033	3.465000	1.325625	0.818125
-30.439001	1.708000	1029.619019	-1.063125	0.411250	0.126875
-32.879002	5.063000	1008.817993	-3.863125	2.655625	-0.367500
-27.877001	-9.516000	1014.734985	-3.451875	0.586250	-0.398125
-28.975000	-9.211000	1013.880981	-3.801875	0.266875	-1.220625
-28.426001	-10.004000	1013.088013	-1.548750	0.918750	-1.719375
-23.790001	-4.148000	1018.760986	-0.402500	-1.041250	-0.914375
-27.389000	-2.806000	1010.953003	-1.155000	-1.417500	-0.643125
-24.766001	-10.065001	1025.287964	1.168125	0.945000	0.240625
-25.010000	-16.775000	1124.962036	1.798125	-2.353750	0.148750
-53.253002	-40.199001	1361.154053	3.976875	-10.241875	0.840000
-61.854000	-27.877001	1535.796997	-2.161250	-21.087500	-2.113125
-72.406998	-35.257999	1437.648071	-3.285625	8.373750	0.078750
-104.554001	-22.875000	1253.244995	9.056250	23.646875	-0.918750
-94.367004	22.814001	1176.933960	5.801250	6.947500	3.053750
-73.749001	8.967000	1100.073975	2.213750	1.251250	4.427500
-51.118000	8.601000	1033.035034	4.834375	26.424999	0.634375
-105.896004	48.373001	915.182983	-3.876250	43.662498	-11.497500
-89.609001	65.636002	955.565002	-21.389376	6.081250	-8.522500
-20.923000	47.396999	1070.367065	-25.138750	-14.406875	3.255000
-80.031998	-13.969000	935.923035	-13.400625	26.792500	3.587500
-35.929001	2.745000	855.341980	-5.595625	14.026250	-6.790000
-31.110001	-24.278000	734.013000	5.486250	4.073125	-10.014375
-2.928000	-27.511000	787.083008	-2.047500	14.240625	-4.025000
-50.751999	-52.521000	642.025024	-3.920000	38.486874	4.143125
-97.417000	-74.603004	590.968018	-8.203125	16.760626	1.474375
-45.262001	-72.163002	596.518982	-14.586250	4.313750	-2.410625
-17.385000	-82.899002	569.739990	-14.008750	16.366875	-4.825625
-0.366000	-88.450005	600.544983	-21.848749	15.758750	-8.837500
-32.695999	-63.257000	664.900024	-26.691875	-6.260625	-2.191875
-23.790001	-130.662003	701.500000	-21.021875	-1.868125	0.761250
-50.202999	-171.348999	724.192017	-12.057500	6.243125	-0.651875
-94.672005	-127.368004	742.187012	9.156875	-24.517500	-9.471875
-63.623001	-106.811005	890.783020	20.146875	-35.271252	-11.173750
-107.055000	-103.944000	896.760986	15.793750	-10.031875	-12.420625
-85.948997	-59.597000	1037.182983	6.055000	-18.230625	-3.801875
-144.020996	-65.941002	1116.239014	-24.097500	-31.946251	1.303750
-77.775002	-130.052002	1207.373047	13.711250	0.914375	14.179375
-151.768005	-121.084999	1258.063965	22.049999	-26.389999	10.845625
-149.876999	-43.188000	1542.019043	37.546249	-46.584999	19.744375
-23.058001	-57.218002	1527.013062	12.906250	-50.378124	15.330000
-121.756004	-87.230003	1544.458984	-2.550625	9.611875	3.880625
-77.104004	-86.437004	1365.973022	-0.358750	28.096251	-0.651875
-78.568001	-70.455002	1329.067993	23.638124	14.708750	-5.586875
-95.526001	-61.122002	1285.758057	47.963123	3.246250	-11.191250
2.501000	23.058001	1112.395996	65.511253	19.521250	-5.705000
0.000000	102.723999	993.629028	40.691875	18.624374	-0.468125
-27.389000	95.038002	880.351990	3.714375	16.870001	0.809375
-39.223000	93.147003	869.127991	-22.483126	13.645625	1.141875
-55.998001	62.098000	892.186035	-26.223749	3.355625	8.610000
-58.743000	61.366001	899.140015	-29.386875	2.909375	6.781250
-68.747002	27.632999	954.161987	-25.921875	-2.213750	4.103750
-66.246002	4.880000	974.048035	-26.613125	-0.354375	-2.568125
-58.681999	4.636000	971.242004	-18.838751	6.160000	-4.917500
-50.630001	-22.143000	982.283020	-12.009375	-10.338125	-4.099375
-58.132999	-22.326000	995.885986	2.725625	-6.776875	-2.143750
-53.862999	-30.500000	1019.492981	9.148125	-0.087500	1.386875
-60.146000	-16.653000	1024.129028	8.894375	0.000000	2.388750
-62.525002	-5.429000	1025.471069	5.022500	3.158750	1.010625
-66.978004	-7.930000	1002.778992	3.631250	4.195625	1.028125
-68.502998	-13.908000	1003.267029	-0.901250	3.981250	-1.675625
-64.050003	-6.100000	1006.072998	-1.855000	-1.815625	-3.045000
-58.926003	1.586000	1024.067993	-2.082500	-0.179375	-3.010000
-59.230999	-6.710000	1012.721985	-2.931250	-0.402500	-0.612500
-64.660004	-12.932000	1011.502014	-3.360000	1.981875	-0.708750
-66.856003	-20.007999	1015.772034	-4.900000	-2.143750	-0.581875
-65.696999	-14.945000	1011.867981	-2.918125	2.113125	-2.095625
-66.124001	-8.784000	1003.694031	0.555625	0.004375	-1.535625
-59.230999	-10.797000	1056.641968	3.955000	-2.651250	0.345625
-78.323997	-10.858000	1083.177002	8.623125	-1.815625	2.043125
-95.831001	5.673000	1165.039062	11.033750	-5.201875	0.402500
-106.139999	6.710000	1170.956055	13.466250	-2.380000	-0.743750
-110.959000	23.241001	1144.725952	23.878750	8.946875	-3.346875
-143.472000	37.209999	1220.365967	26.512501	4.768750	-7.048125
-133.589996	87.230003	1288.259033	12.936875	-3.622500	-13.685000
-104.066002	118.096001	1264.041992	-10.311875	7.529375	-9.423750
-162.016006	60.084999	1293.139038	-18.628750	21.673750	-3.661875
-118.889000	24.705000	1305.400024	-13.986875	-10.360000	-0.485625
-64.293999	64.660004	1275.144043	-0.008750	-16.226875	-0.293125
-34.526001	29.585001	1131.244995	5.652500	16.012501	1.929375
-27.632999	63.928001	1079.212036	-1.474375	28.813749	-0.520625
-47.945999	44.957001	907.375000	-9.852500	45.674999	-1.872500
-22.326000	23.241001	754.752991	-28.139999	38.465000	1.920625
-46.360001	-7.076000	687.531006	-0.888125	22.211876	-2.546250
-68.014999	-9.577000	482.815002	2.730000	22.251249	-4.344375
-116.388000	-16.042999	465.979004	-0.179375	57.185623	-2.607500
-111.203003	-11.224000	468.358002	-10.526250	7.039375	-2.537500
-48.434002	-23.607000	515.328003	-25.305000	13.343750	-5.145000
-94.062004	-13.542000	553.148010	-24.526251	16.419374	-8.557500
-113.887001	-35.624001	628.056030	-27.313126	-8.885625	-5.092500
-78.385002	-112.849998	771.345032	-21.109375	-32.948124	-5.158125
-106.017998	-106.384003	792.817017	-14.293125	-28.196875	-2.231250
-76.799004	-118.340004	891.820007	-8.417500	-25.344376	-6.020000
-102.723999	-74.542000	921.161011	-7.883750	-36.789375	2.633750
-115.229004	-35.746002	1011.807007	-9.288125	-18.571875	5.600000
-139.811996	-79.910004	1076.100952	12.718125	-64.750000	9.353750
-152.682999	-140.483002	1124.656982	14.385000	-9.318750	0.892500
-129.320007	-12.322001	1085.800049	-21.555626	16.651251	-5.285000
-153.658997	-97.356003	1294.664062	-51.240002	-33.403126	-11.025000
-128.343994	-193.492004	1346.818970	-21.039375	-22.570625	-16.458750
-156.343002	-244.427002	1457.900024	29.662500	1.316875	-5.608750
-107.116005	-149.876999	1332.422974	43.715000	-17.885000	-1.658125
-101.198997	-102.846001	1301.130005	37.511250	19.923750	11.738125
-95.160004	-60.207001	1140.639038	19.459999	9.476250	6.811875
-84.302002	-46.055000	1074.820068	14.105000	3.946250	3.972500
-90.707001	-36.722000	1021.445007	5.871250	2.524375	8.220625
-44.225002	-44.652000	975.877991	3.552500	-8.487500	13.523125
-24.217001	-48.678001	940.681030	4.742500	-9.528750	18.545626
-25.193001	-30.622000	995.398010	2.091250	-19.263124	17.062500
-22.264999	-36.844002	980.087036	-3.115000	-18.808125	12.245625
-28.121000	-60.024002	998.509033	-2.865625	-13.496875	4.073125
0.549000	-31.049000	1004.182007	-1.780625	-16.450001	-0.682500
7.015000	-46.177002	1026.874023	1.942500	-4.558750	-0.918750
9.638000	-37.698002	1023.213989	3.018750	-7.310625	-2.743125
14.396000	-23.180000	1020.225037	0.175000	-2.677500	-2.030000
9.394000	-26.596001	1022.054993	-0.249375	3.220000	-0.188125
9.089000	-33.184002	1005.890015	3.268125	6.282500	2.931250
-1.952000	-42.517002	1014.856995	2.988125	3.810625	2.559375
-0.244000	-29.097000	1014.186035	3.972500	-3.810625	-2.673125
9.455000	-38.674000	1031.998047	-0.415625	-1.378125	-4.725000
12.749001	-28.792000	1009.916016	-3.976875	1.553125	-5.403125
22.570000	-24.461000	996.312988	-3.653125	-2.489375	-2.826250
19.580999	-25.986000	1005.402039	-2.266250	-0.144375	-1.386875
12.810000	-25.254000	1005.341003	-2.541875	-1.868125	0.358750
19.825001	-29.646000	1005.280029	-2.275000	1.089375	1.929375
15.494000	-37.698002	976.549011	-1.719375	1.071875	2.310000
16.348000	-41.968002	987.773010	1.176875	-2.563750	1.194375
25.620001	-28.731001	993.934021	-3.031875	-1.701875	-0.708750
18.117001	-26.596001	1162.843018	-8.456875	-16.309999	1.531250
1.342000	-74.969002	1288.869019	-2.695000	-15.172500	2.975000
-14.030000	-83.387001	1560.624023	3.990000	-44.340626	0.520625
35.380001	-91.865997	1753.750000	14.008750	-28.385000	0.424375
78.507004	-76.860001	1571.909058	11.436250	5.250000	-2.445625
76.920998	0.610000	1370.364990	3.311875	22.741249	-8.911875
71.248001	-57.827999	1123.192993	-18.265625	20.527500	-11.370625
19.947001	8.967000	889.807007	0.463750	45.556873	-8.566250
46.848000	-13.298000	849.851990	4.348750	66.679375	-3.600625
36.844002	5.917000	784.520996	-3.539375	69.601875	1.986250
30.195000	26.169001	815.265015	-4.493125	27.037500	9.839375
-20.923000	2.745000	723.582031	-4.396875	17.911249	13.072500
-106.627998	-15.067000	569.862000	4.891250	33.459999	6.317500
-54.961002	-37.393002	629.398010	12.359375	42.306252	-1.776250
-78.690002	-28.182001	500.688019	17.276875	25.003124	-4.580625
-78.995003	-32.695999	526.674011	-1.837500	9.795625	-0.280000
-38.917999	-51.910999	526.064026	-8.391250	5.363750	-4.637500
-95.953003	-46.604000	584.807007	-30.174376	1.697500	-0.787500
-92.292999	-66.184998	634.095032	-25.672501	-13.457500	-9.231250
-102.175003	-77.042999	726.327026	-31.141251	-12.411875	-10.451875
-74.359001	-85.888000	746.395996	-15.290625	-18.287500	-6.811875
-66.001999	-91.500000	801.601013	-16.520000	-11.764375	-7.450625
-108.763000	-154.085999	1008.635010	19.424999	-10.010000	-9.830625
-86.253998	-75.334999	1079.639038	-12.906250	-19.652500	-4.480000
-110.043999	-114.802002	1140.883057	10.023125	-5.731250	4.523750
-164.212006	-111.996002	1350.113037	-9.808750	-51.463123	0.691250
-126.453003	-129.320007	1315.160034	11.366250	-28.918751	-0.980000
-172.874008	-107.116005	1454.911011	17.176250	-18.077499	-1.207500
-161.345001	-107.725998	1457.167969	7.074375	-28.984375	-11.291875
-79.056000	-91.682999	1303.020996	8.198750	-1.198750	-6.636875
-94.611000	-105.774002	1264.286011	-5.626250	12.105625	-7.901250
-54.473000	-111.934998	1089.826050	-1.347500	11.606875	-4.528125
-70.515999	-98.697998	1044.320068	6.190625	8.981875	-2.100000
-44.347000	-74.237000	973.559998	13.081250	8.417500	2.900625
-37.453999	-40.320999	993.812012	17.110624	-0.048125	6.186250
-32.208000	-32.146999	988.017029	16.235624	0.096250	7.126875
-34.221001	-7.198000	1007.293030	7.210000	-1.977500	6.632500
-32.085999	-21.533001	1013.759033	-4.204375	-2.948750	4.816875
-47.885002	-26.230000	1004.791992	-8.295000	-4.672500	0.096250
-43.798000	-37.027000	1005.218994	-5.626250	-10.959375	-2.375625
-50.264000	-59.535999	1012.478027	-5.696250	-4.803750	-5.293750
-43.066002	-69.235001	1021.627991	-1.325625	-6.256250	-4.821250
-35.380001	-53.131001	1023.092041	-1.010625	-1.483125	-2.161250
-29.585001	-66.917000	1029.497070	-2.716875	-1.365000	-1.277500
-26.596001	-51.484001	1025.837036	-2.331875	4.458125	-1.106875
-29.402000	-68.320000	1017.114014	-1.929375	1.395625	-1.365000
-36.417000	-72.895004	1007.109985	1.645000	2.318750	-0.551250
-38.125000	-58.926003	997.898987	5.061875	3.924375	-0.433125
-23.058001	-52.704002	995.031982	7.004375	0.739375	-0.612500
-30.378000	-33.916000	1007.903015	9.016875	-0.931875	0.940625
-45.018002	-22.814001	1007.781006	7.148750	3.578750	2.296875
-52.154999	-19.703001	1008.147034	3.801875	1.526875	2.100000
-47.702000	-28.365000	1021.627991	1.898750	-2.135000	2.069375
-37.758999	-38.674000	1022.726013	-0.056875	4.151875	4.558750
-37.332001	-36.355999	1007.476013	0.756875	4.103750	4.768750
-32.574001	-35.806999	1041.697021	2.353750	-0.936250	4.585000
-61.915001	-40.625999	1173.457031	2.051875	-6.908125	4.790625
-92.354004	-35.441002	1410.990967	7.240625	-30.725624	4.488750
-48.373001	-14.152000	1426.973022	14.783125	-23.756250	7.853125
-44.834999	-26.840000	1393.849976	9.209375	-19.114374	11.445000
-30.378000	-36.050999	1297.286987	-3.430000	-33.621876	17.180626
-25.681000	10.553000	1224.818970	1.614375	15.798125	10.543750
-26.596001	49.105000	1174.799072	-1.557500	40.963123	0.188125
8.601000	34.160000	1051.945068	1.067500	59.504375	-1.890000
-19.093000	-7.076000	1100.379028	-18.760000	13.317500	0.691250
-17.141001	-24.583000	1015.528015	-8.093750	17.937500	0.074375
-35.014000	-12.993000	1005.036011	-4.252500	41.711250	3.548125
-39.711002	-26.169001	816.241028	5.661250	29.894375	-4.165000
-73.444000	-36.295002	735.354980	4.165000	17.451876	-1.474375
-73.871002	-15.738000	629.458984	2.393125	-1.610000	1.330000
-47.336002	-55.083000	608.658020	-0.945000	32.480000	0.271250
-68.320000	14.274000	497.333008	-6.724375	47.355000	0.179375
-47.031002	-44.103001	505.446014	-18.414375	-4.816875	0.345625
-4.453000	-42.334000	516.548035	-28.341249	18.252501	-3.596250
-65.026001	-44.774002	547.414001	-27.776875	20.645624	-7.774375
-55.327000	-73.993004	696.070984	-27.015625	-18.449375	-3.272500
-55.632000	-96.563004	755.302002	-14.892500	-15.500625	-0.643125
-142.617996	-150.487000	806.846985	9.401875	-6.405000	-12.035625
-63.440002	-90.097000	861.380981	20.151251	-22.946875	-15.789375
-120.779999	-74.176003	919.392029	41.991249	-32.501877	-9.909375
-78.568001	-38.612999	1006.927002	41.698124	-21.358749	-6.829375
-88.084000	54.290001	1112.030029	12.792500	-65.966248	13.155625
-130.113007	4.270000	1265.505981	2.226875	-26.928125	7.665000
-123.890999	27.145000	1143.505981	0.529375	-31.150000	7.424375
-155.428009	-53.618999	1334.802002	1.386875	1.745625	-2.323125
-102.846001	14.640000	1322.358032	1.973125	-16.716875	-13.597500
-19.825001	4.514000	1368.169067	-9.520000	-15.736875	-10.154375
22.509001	-15.250000	1356.457031	-24.570000	-3.731875	-4.475625
-38.003002	-97.051003	1341.755981	-11.948125	10.701250	-1.907500
-27.938000	-42.944000	1154.242065	8.303750	23.043125	-1.933750
-48.799999	-41.663002	1105.380981	16.091249	10.031875	-1.745625
-33.000999	3.660000	1023.213989	24.688126	2.296875	2.773750
-7.747000	12.139000	994.239014	18.182501	-6.886250	8.268750
-10.187000	-6.344000	990.273987	8.426250	-6.615000	11.729375
1.464000	9.943000	1008.330017	3.276875	-9.397500	9.200625
-14.274000	2.989000	994.971008	-2.856875	0.678125	1.089375
-2.196000	4.392000	995.276001	-8.338750	-3.504375	-5.411875
7.503000	14.579000	1006.988037	-9.174375	-4.751250	-7.428750
12.993000	3.233000	1021.445007	-9.603125	-3.871875	-3.255000
9.516000	-17.263000	1017.968018	-7.770000	0.315000	-0.525000
9.577000	-28.914000	1009.611023	-3.023125	2.489375	-0.879375
5.124000	-19.825001	1015.223022	1.238125	1.312500	-1.579375
-3.050000	-11.163000	1018.882996	3.390625	3.259375	0.122500
5.978000	-10.431000	1013.575989	2.511250	2.533125	1.115625
5.551000	0.854000	1016.382019	2.170000	0.385000	0.813750
3.904000	1.403000	1015.833008	1.715000	1.526875	-0.708750
-3.111000	2.928000	1003.816040	-1.408750	0.328125	0.074375
2.257000	-11.102000	1031.692993	-1.531250	1.596875	-0.328125
-1.586000	-16.348000	998.082031	-2.572500	1.658125	-0.516250
15.067000	-13.969000	1010.221008	-3.377500	1.824375	-0.586250
13.298000	-12.322001	998.325989	-0.778750	0.048125	-0.406875
11.346000	-8.662000	1006.195007	1.588125	-0.428750	1.032500
8.784000	-8.174000	1009.671997	0.052500	-1.693125	2.690625
-3.782000	-6.893000	1030.838989	2.034375	-3.823750	2.008125
4.026000	-7.503000	1053.225952	3.110625	-2.283750	1.308125
1.220000	-9.028000	1164.001953	3.342500	-2.922500	-0.315000
-1.769000	-19.215000	1405.379028	5.626250	-15.255625	0.608125
27.632999	-5.124000	1579.656006	3.377500	-37.834999	2.016875
46.360001	-20.923000	1515.057007	-1.421875	-16.165625	3.325000
118.156998	-26.535000	1191.452026	2.331875	-24.491249	-0.192500
46.604000	72.834000	1168.088989	6.396250	13.466250	-5.853750
17.568001	41.541000	1100.317993	-13.453125	34.925625	-5.516875
-34.952999	-5.429000	1104.099976	-0.161875	41.982498	-5.713750
-65.879997	14.152000	1116.666016	3.985625	32.488750	-4.698750
17.507000	14.701000	1132.587036	5.070625	17.845625	-4.370625
23.058001	34.160000	959.713013	2.585625	65.865623	-8.268750
6.527000	12.932000	850.645020	-9.633750	71.763123	-0.105000
61.366001	1.342000	726.754028	-11.344375	14.730625	0.350000
22.143000	3.965000	637.328003	-1.846250	27.982500	-0.122500
-118.156998	20.069000	431.636017	-5.026875	106.623123	11.353125
-185.988998	-10.553000	347.151001	-12.827500	39.475624	2.848125
-118.401001	-33.428001	437.369995	-5.543125	-33.578125	-11.392500
-75.152000	-46.482002	528.565002	-10.285625	9.961875	-15.207500
-111.691002	-37.576000	527.161987	-12.538750	25.134375	-4.191250
-118.278999	-59.353001	619.088989	2.607500	-28.275625	-4.475625
-97.783005	-59.719002	759.877014	3.364375	-22.868126	-2.432500
-101.015999	-76.432999	749.812012	10.928750	-35.485626	7.350000
-118.156998	-100.284004	851.010986	28.174999	-38.110626	-4.952500
-32.146999	11.529000	956.785034	28.297501	-14.113750	6.628125
-117.730003	20.679001	1124.412964	-6.855625	-18.554375	12.648125
-99.552002	-61.792999	1111.907959	-14.144375	-36.045624	6.400625
-137.005997	51.850002	1287.466064	-28.818125	-36.443748	6.387500
-137.250000	-33.977001	1277.279053	-40.543125	-6.737500	1.614375
-119.987000	-80.520004	1276.852051	-0.271250	9.288125	-0.074375
-119.926003	-53.436001	1343.036987	12.998125	-12.293750	1.124375
-88.633003	-61.122002	1358.713989	14.896875	-24.880625	-2.865625
-82.777000	-43.980999	1378.599976	5.376875	-28.161875	-2.296875
-44.103001	-45.567001	1281.000000	14.310625	-12.718125	-1.325625
-66.856003	-9.760000	1143.078979	14.634375	9.603125	1.815625
-33.977001	0.671000	1041.087036	14.853125	2.196250	3.202500
-43.737000	6.039000	986.553040	7.577500	-2.874375	6.269375
-20.923000	-0.183000	988.505005	9.235625	-16.786875	7.210000
-5.551000	-1.952000	1013.942017	14.713125	-13.903750	7.861875
2.989000	-12.566000	1016.382019	9.222500	-10.298750	2.410625
7.320000	30.316999	1006.072998	3.206875	4.799375	-2.051875
5.002000	39.161999	1003.816040	-9.865625	-3.832500	-5.223750
22.875000	34.282001	995.215027	-12.827500	-3.517500	-4.178125
10.980000	16.836000	1020.591003	-15.176875	0.577500	-1.662500
12.810000	-2.806000	1020.652039	-9.537500	-0.831250	1.159375
8.235000	-22.387001	1024.556030	-4.344375	6.772500	1.067500
-2.074000	-21.960001	1011.257996	3.119375	4.930625	-0.791875
-13.298000	-4.758000	1022.299011	1.426250	3.228750	-2.082500
-4.331000	-16.226000	1007.415039	-2.795625	2.047500	-3.679375
-2.501000	-18.544001	1011.380005	-5.267500	3.801875	-3.793125
-1.952000	-19.459000	1011.624023	-3.552500	2.078125	-3.460625
-0.305000	-27.328001	1018.700012	1.036875	3.276875	-0.949375
-2.440000	-14.762000	1010.648010	1.015000	3.928750	1.334375
-12.078000	-16.653000	1003.572021	1.260000	3.233125	1.351875
-7.808000	-7.137000	1012.539001	2.485000	2.038750	1.413125
-11.712000	-8.784000	1016.320984	2.397500	0.984375	-0.109375
-13.054000	0.732000	1009.062012	2.060625	-1.001875	-0.428750
-7.381000	-1.464000	1000.095032	2.778125	0.056875	-0.826875
-5.063000	10.675000	985.150024	2.008125	1.255625	-0.875000
-15.494000	3.782000	1004.609009	2.800000	-3.110625	-0.183750
-7.686000	1.342000	1007.354004	1.750000	-2.161250	0.721875
-9.882000	-5.856000	1029.924072	1.203125	-5.451250	0.822500
-20.130001	-10.065001	1116.666016	0.105000	-5.289375	-2.992500
-33.428001	-10.980000	1258.490967	3.045000	-10.237500	-8.907500
-69.479004	-5.612000	1532.197998	21.546875	-33.363750	-15.483125
-9.699000	45.993999	1566.662964	22.666876	-45.465000	-23.156876
53.802002	88.328003	1456.070068	6.186250	-46.445000	-17.316250
127.185005	67.466003	1341.511963	-14.201250	-15.925000	-4.803750
103.821999	91.561005	1251.109985	-20.654375	9.957500	-1.478750
147.619995	92.354004	1195.782959	-12.075000	50.986252	-0.468125
130.052002	43.066002	1109.895020	-4.720625	45.898125	0.542500
84.607002	53.008999	994.788025	3.062500	29.881250	3.587500
50.935001	5.246000	885.354004	-6.304375	44.848125	14.135625
26.901001	-1.647000	854.793030	3.228750	55.702499	8.570625
-21.289000	14.335000	602.130981	12.923750	54.954376	3.561250
-70.882004	-4.026000	486.841003	18.926250	64.054375	-6.378750
-68.137001	-9.333000	394.487000	17.023125	77.599373	-11.646250
-77.409004	24.339001	379.602997	2.891875	11.790625	-4.795000
-3.233000	-22.753000	468.662994	-8.666875	-1.850625	-7.288750
-66.856003	8.235000	497.333008	-19.919374	24.106251	-3.053750
-104.554001	30.866001	603.168030	-21.918751	10.399375	-4.760000
-83.204002	-22.570000	729.926025	-23.576876	-34.536251	10.224375
-154.513000	-52.764999	844.606018	-4.939375	-23.966249	1.658125
-99.186005	-31.659000	914.877991	5.845000	-27.803125	-2.708125
-125.477005	-29.889999	1048.346069	-3.648750	-40.105625	-3.723125
-2.440000	-43.737000	1065.730957	16.651251	-36.557499	-16.358126
-90.767998	36.234001	1217.255005	-0.389375	-46.283127	-6.422500
-25.742001	32.574001	1189.500000	-9.498125	-22.500626	9.826250
-73.931999	-2.806000	1238.727051	-16.415001	-18.270000	23.476250
-86.010002	-40.320999	1277.035034	-7.131250	-22.771875	15.802500
-39.894001	-22.082001	1286.307007	8.238125	15.268750	3.968125
-59.779999	13.420000	1358.469971	7.835625	25.694374	0.013125
-67.282997	28.853001	1278.743042	-3.316250	7.603750	0.494375
-78.568001	13.603000	1217.743042	-8.448125	15.701875	2.782500
-75.884003	-1.098000	1040.477051	-11.453750	5.136250	2.983750
-71.675003	-17.263000	1002.351990	-6.273750	12.315625	4.414375
-79.788002	-48.617001	981.429016	2.703750	0.966875	1.535625
-66.306999	-34.098999	1002.535034	5.543125	2.778125	-1.163750
-68.564003	-26.596001	1006.804993	4.182500	4.383750	1.351875
-67.892998	-31.476000	1007.109985	6.212500	1.513750	1.662500
-62.220001	-28.731001	1003.510986	4.913125	-3.902500	2.366875
-61.000000	-20.740000	1005.523987	1.785000	-0.612500	3.158750
-58.132999	-17.263000	1007.049011	2.191875	-2.996875	0.901250
-74.054001	-15.372000	1026.141968	0.240625	-2.690625	0.350000
-59.170002	-11.224000	1016.504028	2.113125	-6.173125	-1.894375
-60.268002	4.331000	1036.938965	2.940000	1.115625	-1.955625
-56.547001	2.684000	1030.167969	0.389375	0.494375	-2.800000
-65.941002	5.124000	1022.054993	-0.201250	3.097500	-2.301250
-64.171997	-3.477000	1006.255981	-1.925000	0.883750	-3.495625
-65.391998	-7.076000	1003.023010	1.920625	4.480000	-4.449375
-61.792999	-2.196000	991.067017	3.871875	0.634375	-6.326250
-61.854000	8.723001	1005.096985	2.117500	2.721250	-4.838750
-61.610001	-3.111000	1011.319031	-0.927500	-1.561875	-1.955625
-61.427002	7.747000	1021.140015	2.327500	0.555625	-0.971250
-64.476997	2.135000	1013.210022	2.559375	0.253750	1.190000
-60.512001	5.673000	1011.380005	1.697500	0.966875	1.421875
-65.086998	5.063000	1029.984985	0.910000	-0.345625	0.446250
-64.903999	6.588000	1032.912964	0.249375	1.715000	0.096250
-67.527000	7.686000	1009.611023	-3.473750	3.740625	-2.590000
-68.442001	-0.793000	1016.260010	-4.134375	1.815625	-2.747500
-69.784004	11.285000	1003.389038	-3.806250	3.626875	-3.176250
-73.566002	-5.429000	1000.583008	3.189375	3.570000	-1.653750
-76.311005	4.270000	1024.129028	8.688750	1.413125	-1.058750
-76.006004	17.385000	1038.463989	5.468750	2.358125	-0.564375
-79.056000	13.298000	1027.057007	4.628750	5.954375	-0.516250
-88.999001	20.252001	987.955994	4.173750	8.133125	-0.253750
-89.792000	21.594000	981.612000	2.970625	1.365000	1.023750
-83.326004	15.677000	998.875000	-0.910000	1.146250	-0.074375
-76.555000	34.892002	944.096985	-2.152500	2.305625	0.730625
-77.714005	38.796001	910.242004	-7.420000	-4.703125	1.439375
-87.108002	40.015999	872.788025	-11.112500	-2.043125	3.513125
-90.707001	68.869003	897.981018	-10.066875	-6.890625	7.017500
-58.011002	35.136002	1053.592041	-10.101875	-13.094375	17.578751
-29.341000	-55.021999	1004.059998	-3.933125	2.436875	1.128750
-35.380001	-37.271000	1118.008057	-2.594375	-14.380625	-11.252500
-11.712000	-46.299000	956.053040	-14.560000	8.378125	-16.056250
-32.939999	-70.089005	891.880981	-11.073125	3.565625	-18.983126
-33.733002	-61.792999	856.379028	2.642500	7.100625	-15.531250
-40.809002	-43.126999	866.627014	8.518125	-14.026250	-12.565000
-3.660000	-26.413000	899.322998	18.112499	-10.963750	0.551250
-7.442000	-15.677000	978.440002	12.131875	-25.961250	-0.682500
0.000000	-16.958000	1021.567017	18.252501	-24.329374	-0.175000
0.366000	22.264999	1042.978027	8.986250	-2.800000	-2.673125
11.346000	88.266998	1147.898071	-22.115625	-16.248751	-12.604375
18.910000	31.598000	1238.239014	-36.811249	11.375000	1.246875
-33.793999	-43.066002	1206.763062	-43.487499	36.610001	1.338750
-77.165001	-93.330002	1238.117065	-18.711876	16.051874	9.296875
-118.278999	-117.730003	1360.056030	17.023125	-9.511250	17.193750
-93.452003	-106.750000	1401.901978	29.176874	-15.898750	5.643750
1.037000	-28.365000	1313.269043	32.243752	-6.829375	-2.288125
10.126000	8.418000	1318.697998	17.005625	7.704375	-4.838750
-34.342999	52.643002	1280.634033	9.104375	15.155000	2.235625
-35.990002	18.056000	1223.904053	13.055000	19.455626	14.420000
-95.648003	42.944000	1233.114990	14.105000	24.395000	11.956875
-116.510002	89.121002	1210.118042	4.033750	15.102500	3.836875
-88.754997	36.600002	1132.648071	-4.545625	6.361250	-1.343125
-28.670000	78.202003	1081.834961	4.248125	-31.701250	-16.436874
27.511000	55.875999	943.914001	1.295000	-20.562500	-11.891250
13.847000	69.479004	781.104980	2.826250	4.725000	-7.498750
-35.868000	40.443001	643.184021	-19.775000	22.640625	0.301875
-71.248001	19.764000	669.596985	-11.550000	34.934376	-2.506875
-46.542999	8.601000	587.796021	2.463125	16.730000	-7.288750
-77.348000	6.527000	641.598022	5.932500	10.425625	-8.693125
-31.842001	9.211000	718.213989	12.232500	-6.680625	-13.785625
-10.858000	30.561001	895.419006	-5.324375	-14.691250	3.206875
-37.088001	-3.294000	942.023010	-16.305626	-12.376875	8.286250
-70.760002	4.697000	923.113037	-11.283125	4.523750	6.986875
-64.293999	7.503000	980.697021	-11.882500	-10.071250	7.665000
-54.778000	-2.196000	1060.119019	-1.758750	-8.741250	2.966250
-56.303001	-10.858000	1057.739990	-4.396875	-6.571250	4.138750
-47.336002	-7.442000	1050.176025	-7.879375	-6.553750	3.508750
-54.595001	-16.042999	1027.972046	-21.280001	-6.973750	5.687500
-40.869999	-43.798000	999.302002	-27.120625	-11.795000	6.365625
-22.875000	-72.406998	1041.208984	-28.284374	-14.188125	2.358125
-25.864000	-77.958000	1039.867065	-6.558125	8.601250	-4.598125
-34.952999	-62.525002	1025.837036	5.976250	11.558750	-9.786875
-35.685001	-50.081001	1013.270996	16.323126	10.718750	-8.408750
-43.737000	-53.802002	1011.562988	14.529375	3.823750	-3.675000
-31.476000	-45.262001	1031.083008	8.938125	0.065625	1.513750
-33.733002	-44.591000	1025.287964	5.048750	2.848125	1.391250
-44.225002	-34.526001	1019.066040	1.513750	0.905625	0.831250
-43.554001	-27.572001	1021.994019	0.004375	0.577500	1.277500
-46.482002	-23.424000	1013.148987	-0.603750	1.325625	1.618750
-48.799999	-34.526001	1029.497070	-0.223125	1.986250	0.000000
-50.874001	-25.802999	1021.018005	-0.577500	2.213750	-1.955625
-52.338001	-23.241001	1014.856995	1.666875	7.008750	-2.467500
-58.376999	-17.263000	1003.450012	1.500625	2.196250	-2.493750
-61.976002	-9.211000	962.397034	3.338125	9.362500	-3.014375
-68.442001	-15.433001	888.343018	0.481250	10.933125	-1.067500
-77.225998	-18.361000	806.419983	1.220625	13.195000	-1.986250
-127.612000	-35.746002	698.572021	11.344375	27.116249	-4.410000
-87.778999	-5.124000	678.015015	16.025625	6.413750	-9.555000
-27.999001	5.673000	720.104980	15.421875	-7.656250	-4.930625
-27.328001	-15.494000	785.863037	15.430625	-29.246876	-10.202500
-25.864000	-25.498001	886.085999	23.086876	-4.536875	-12.573750
-7.808000	70.028000	826.244995	17.928749	-11.011875	-7.258125
-13.908000	88.694000	934.276001	13.243125	4.029375	-0.420000
46.665001	46.542999	1003.816040	-20.453125	-11.580625	-0.280000
41.723999	82.472000	1119.045044	-26.700624	-29.780624	5.110000
46.116001	61.671001	1159.792969	-58.209373	-39.672501	1.916250
43.126999	-100.100998	1248.487061	-36.216251	-24.123751	1.295000
7.137000	-69.540001	1366.888062	-15.789375	-37.038750	-2.835000
-36.234001	-72.406998	1514.935059	-13.619375	-20.352501	0.625625
-80.641998	-114.680000	1590.453003	4.825625	-16.415001	13.440000
-68.197998	-92.110001	1614.060059	10.176250	4.816875	12.267500
-33.062000	-114.375000	1528.171997	27.790001	1.618750	1.968750
33.672001	-17.995001	1426.546021	39.948124	25.300625	-0.949375
45.993999	-8.784000	1306.925049	30.970625	21.621250	-10.053750
116.937004	69.357002	1249.097046	29.098125	-16.086876	-9.454375
124.074005	89.059998	1223.598999	16.590000	11.186875	-1.618750
99.674004	66.184998	1037.000000	0.546875	43.259998	6.278125
76.677002	51.545002	928.908020	-5.626250	47.980625	3.810625
14.030000	49.043999	853.207031	-20.343750	26.818750	2.611875
-8.479000	29.036001	888.281982	-18.112499	6.028750	-1.557500
-42.272999	35.380001	732.366028	-17.254999	16.572500	-0.231875
-47.396999	14.762000	797.270020	-13.685000	50.653751	3.653125
-67.282997	-5.917000	752.374023	6.295625	34.693748	6.422500
-104.737000	8.357000	650.504028	23.130625	6.278125	-0.875000
-114.436005	18.300001	725.900024	28.021875	-2.751875	-1.093750
-89.609001	-0.549000	793.304993	22.124374	-10.268125	0.910000
-112.849998	36.478001	813.069031	3.898125	5.906250	3.600625
-81.313004	37.209999	925.979980	-4.501875	0.958125	0.035000
-128.343994	47.885002	928.298035	-8.763125	2.454375	-1.828750
-130.540009	36.904999	981.307007	-11.410000	-4.821250	-0.975625
-142.984009	40.504002	1011.014038	-16.283751	-11.650625	2.463125
-113.704002	25.193001	1063.596069	-5.621875	-5.538750	-1.106875
-124.745003	20.496000	1067.317017	-5.919375	-6.090000	0.153125
-113.459999	18.422001	1059.326050	-4.838750	6.798750	-1.382500
-119.987000	19.032000	1026.630005	-4.169375	4.917500	-2.511250
-130.540009	10.980000	1023.275024	-2.244375	2.130625	-3.784375
-117.303001	5.795000	1000.033997	-2.117500	-8.229375	-3.508750
-114.192001	6.893000	1023.275024	-2.065000	-0.520625	-1.041250
-108.335999	28.182001	1003.450012	2.471875	-4.204375	2.966250
-104.919998	15.677000	1014.979004	-0.074375	-11.077500	5.005000
-95.709000	13.115000	1012.600037	1.378125	-15.102500	2.563750
-84.973000	11.224000	1018.212036	-2.852500	-6.562500	2.913750
-81.313004	10.065001	1022.054993	-4.935000	-6.641250	2.393125
-85.888000	5.246000	991.859985	-0.686875	-1.820000	-0.083125
-67.587997	18.605000	983.747009	-0.787500	-6.015625	1.579375
-65.086998	-1.098000	964.837036	-2.454375	-8.452500	3.154375
-63.867001	7.076000	936.716003	-4.773125	-5.328750	-1.675625
-55.693001	-3.233000	930.616028	-4.375000	-4.095000	-0.406875
-35.136002	-10.980000	953.125000	-3.373125	-5.355000	-5.285000
-38.307999	-1.769000	910.242004	-3.434375	-5.372500	-5.884375
-36.295002	-0.732000	864.492004	-7.826875	-1.925000	-2.970625
-38.430000	-9.028000	865.285034	-3.968125	-6.768125	-2.638125
-36.600002	-3.050000	859.246033	-4.628750	-6.291250	-2.861250
-27.145000	4.331000	877.606995	13.076875	-17.639999	-9.240000
-7.930000	3.050000	838.200989	28.551250	1.675625	-12.635000
-18.117001	23.729000	790.194031	23.384375	15.483125	-2.100000
15.616000	2.318000	781.776001	10.045000	30.511250	10.753750
-44.042000	3.172000	741.577026	-2.113125	34.763748	6.803125
27.877001	23.180000	890.539001	-14.647500	-19.718124	-2.738750
1.220000	5.063000	1082.567017	-21.529375	-72.940002	-13.391875
42.517002	29.463001	1266.115967	-10.696875	-39.383751	-10.430000
29.585001	41.297001	1197.063965	-16.931250	-39.103748	-9.415000
131.272003	7.442000	1174.615967	-25.773125	23.012501	-7.901250
65.879997	-70.150002	1323.578003	-24.272499	-24.010000	-21.621250
-0.183000	-11.651000	1479.128052	-24.163124	-9.896250	-14.765625
-47.275002	-38.674000	1417.822998	-14.455000	2.401875	6.020000
-152.012009	-169.091995	1481.385010	-4.248125	-2.520000	11.436250
-30.073000	-176.106995	1525.549072	9.419375	-13.995625	8.277500
61.000000	-130.173996	1428.010010	22.916250	-0.056875	9.673125
133.895004	-98.881004	1278.316040	36.071877	40.906250	18.064375
45.750000	-25.864000	1256.661011	31.683750	18.011875	19.792500
59.475002	8.235000	1214.815063	35.061249	29.518126	25.532499
31.049000	50.813000	1113.311035	14.713125	11.042500	15.881250
54.534000	35.196999	1073.478027	2.953125	6.855625	12.796875
21.167000	38.430000	1069.635010	-3.421250	-1.260000	5.670000
60.207001	-27.023001	856.440002	-12.473125	32.475624	15.666875
-49.288002	25.132000	651.785034	-12.543125	58.397499	8.176875
-82.044998	56.486000	622.809998	-8.356250	14.065625	-8.168125
-101.320999	41.114002	589.442993	-14.975625	29.570625	-3.889375
-94.976997	-6.039000	692.593994	-13.593125	19.031250	-8.618750
-113.033005	26.901001	752.923035	-19.578125	-2.870000	-1.903125
-137.005997	-15.311000	860.648987	-3.801875	4.060000	-2.830625
-117.791000	3.294000	874.739990	-0.647500	-6.256250	-2.511250
-112.118004	-35.319000	980.575012	20.986876	1.846250	-6.536250
-70.333000	-30.073000	1053.713989	37.152500	-33.547501	-9.616250
-77.592003	27.328001	1005.096985	20.566875	-15.496250	-0.126875
-69.479004	28.792000	1031.327026	8.496250	-11.733750	3.447500
-73.200005	31.598000	1051.334961	0.538125	-15.338750	4.178125
-66.184998	28.731001	1035.047974	1.658125	-7.157500	1.815625
-77.225998	32.330002	1016.077026	2.506875	-5.858125	1.172500
-46.726002	36.783001	1032.608032	2.747500	8.973125	-3.906875
-50.020000	48.007000	1029.192017	-1.806875	13.650000	-1.995000
-64.293999	24.583000	1017.601990	-6.768125	6.330625	-0.980000
-76.982002	29.219000	997.593994	-3.263750	2.165625	-2.371250
-67.282997	26.901001	994.239014	-0.393750	2.200625	-2.782500
-58.681999	36.173000	1024.006958	-0.966875	-2.835000	-1.141875
-61.549000	31.354000	1031.388062	1.141875	-0.853125	-0.988750
-59.535999	28.059999	1021.689026	-1.220625	-3.263750	1.841875
-68.747002	30.256001	1015.650024	0.201250	2.716875	0.861875
-68.564003	37.088001	1008.879028	-0.923125	-5.744375	2.108750
-70.028000	24.583000	996.679016	-2.563750	1.303750	0.840000
-58.560001	26.779001	1025.531982	1.089375	0.380625	-1.820000
-58.804001	28.182001	1018.395020	0.258125	-1.089375	-0.564375
-62.586002	25.864000	1031.815063	-1.076250	-2.546250	0.516250
-54.900002	26.718000	983.442017	-1.356250	2.257500	-0.091875
-62.098000	27.877001	1001.681030	-1.474375	-1.050000	1.111250
-55.693001	32.879002	989.359009	-1.015000	-0.822500	0.673750
-58.316002	8.540000	1041.453003	-1.461250	-5.215000	0.774375
-46.604000	20.130001	1061.644043	3.941875	-3.705625	-2.528750
-55.937000	33.733002	1045.540039	8.303750	3.031875	-1.990625
-61.122002	42.944000	976.182983	7.293125	7.214375	-1.483125
-56.913002	44.896000	906.765015	3.841250	5.346250	1.369375
-55.021999	35.868000	860.100037	2.725625	0.100625	1.146250
-53.680000	32.695999	769.637024	-0.332500	3.959375	-2.467500
-81.313004	32.025002	670.023987	-5.919375	9.515625	-0.581875
-56.119999	34.403999	636.169006	-15.575000	3.395000	5.105625
-46.482002	30.805000	748.531006	-11.130000	7.319375	7.573125
-40.320999	-1.525000	776.652039	0.503125	-5.302500	5.499375
-22.021000	11.163000	993.567993	-27.203751	10.325000	-1.382500
-48.434002	-26.047001	1055.360962	-19.241249	23.415001	-16.795626
-104.859001	14.823000	1111.724976	-18.838751	23.275000	-20.400625
20.252001	-60.329002	1144.055054	16.533125	-21.831249	-13.203750
-35.746002	-6.405000	1264.407959	-11.388125	-46.046875	-9.349375
44.042000	-36.844002	1214.571045	-18.099375	-19.359375	-0.026250
2.684000	-97.356003	1235.372070	-34.728748	-36.522499	-10.333750
-87.840004	-169.884995	1486.692017	-21.940624	-21.796249	-11.812500
-236.985001	-213.072998	1462.353027	5.858125	2.423750	-3.031875
-105.774002	-154.695999	1296.921021	31.609375	9.856875	-0.214375
-90.462997	-58.926003	1346.148071	45.486874	-1.071875	0.730625
34.038002	42.761002	1243.546021	37.865623	-7.358750	7.380625
31.171000	46.786999	1228.784058	17.307501	14.122500	14.170625
57.767002	21.594000	1187.609009	13.750625	-5.022500	27.470625
60.329002	30.316999	1168.515991	4.020625	-19.534374	15.806875
67.466003	25.071001	1081.407959	9.848125	0.542500	4.366250
-29.036001	5.429000	936.838013	11.690000	26.853750	-6.383125
-7.137000	62.708000	665.937012	24.666250	47.578125	-10.828125
-108.945999	52.033001	682.223999	-16.226875	37.590000	-10.023125
-93.085999	43.675999	735.294006	-21.735001	-5.936875	-11.431875
-44.408001	28.182001	916.708008	-22.715000	11.121250	-3.937500
-67.587997	3.477000	953.918030	-9.642500	-4.729375	-0.245000
-36.295002	13.176001	951.416992	-4.125625	-16.458750	-1.334375
-42.272999	4.209000	935.130005	9.380000	-2.327500	-3.710000
-28.182001	21.289000	968.375000	3.832500	-9.301250	-5.245625
-57.035000	3.355000	993.385010	-6.063750	1.426250	-6.221250
-36.234001	15.494000	953.918030	-3.670625	-3.661875	-5.525625
-66.124001	-1.769000	1013.332031	-2.095625	1.426250	-2.734375
-59.414001	8.296000	1007.354004	-2.196250	-1.640625	-2.533125
-51.728001	3.904000	997.471985	-5.595625	2.380000	-0.647500
-58.560001	-4.148000	1021.384033	-3.806250	-1.338750	-2.336250
-51.850002	-13.115000	1028.093994	3.045000	2.594375	-3.101875
-55.449001	13.481000	1044.015015	4.462500	-5.153750	0.551250
-51.423000	12.444000	1012.416992	4.974375	5.066250	1.172500
-50.020000	21.594000	1002.596008	9.323125	0.406875	2.791250
-48.190002	16.714001	1026.324951	11.357500	-1.203125	2.883125
-49.348999	25.681000	997.655029	6.864375	2.555000	2.244375
-44.469002	40.015999	1021.750000	-0.367500	0.048125	2.191875
-46.542999	27.450001	1015.345032	-3.495625	-4.869375	1.964375
-36.355999	28.426001	1017.114014	-6.768125	2.835000	2.257500
-47.580002	23.729000	1005.707031	-2.699375	0.730625	0.520625
-39.955002	23.424000	1017.906982	-0.253750	1.023750	0.498750
-43.859001	29.097000	1024.921997	1.185625	-0.721875	-0.144375
-51.605999	19.764000	1013.942017	0.192500	2.073750	-1.911875
-49.348999	26.474001	1008.085999	-0.148750	0.691250	-3.346875
-49.776001	27.572001	1018.455994	-3.447500	1.627500	-2.161250
-42.882999	21.533001	1003.328003	-6.094375	2.331875	-0.153125
-46.360001	13.359000	1003.937988	-2.913750	0.035000	1.010625
-44.469002	0.793000	986.736023	-5.311250	3.758125	0.306250
-53.375000	-3.050000	988.444031	-1.776250	0.463750	-3.263750
-46.726002	2.074000	968.741028	-3.902500	7.975625	-2.734375
-61.792999	-2.440000	994.117004	-4.077500	-0.455000	-2.550625
-58.132999	-2.745000	936.350037	-6.746250	8.990625	-3.373125
-66.429001	1.952000	932.018982	-9.975000	1.141875	-1.960000
-72.346001	-20.374001	916.952026	-4.624375	-2.222500	-3.176250
-55.449001	-10.004000	910.913025	6.601875	-8.916250	-2.428125
-35.501999	2.684000	857.660034	4.690000	-13.816250	2.393125
-43.859001	8.235000	865.712036	-5.652500	-21.315001	6.356875
-29.524000	1.830000	876.814026	-21.109375	-24.692499	8.706250
17.568001	-22.997000	902.799988	-17.294374	-18.865000	5.674375
29.219000	-64.660004	951.416992	-13.120625	-19.442499	3.132500
75.762001	-50.202999	1022.054993	2.546250	-22.924999	-5.180000
91.134003	-60.146000	1134.599976	13.807500	-21.918751	-2.944375
81.496002	-30.500000	1187.670044	7.809375	-17.395000	-2.152500
113.277000	-45.323002	1243.973022	-4.873750	-12.556250	0.966875
64.476997	-42.456001	1270.264038	-10.298750	5.276250	0.398125
57.278999	-54.046001	1238.910034	-24.346874	8.815625	-3.228750
54.351002	-99.125000	1290.942993	-23.095625	0.840000	-2.493750
38.430000	-130.296005	1327.969971	-13.549375	14.612500	-4.226250
36.844002	-153.658997	1300.947021	15.500625	21.721874	-5.350625
59.170002	-88.023003	1247.937988	26.044374	28.918751	-7.581875
21.472000	-26.535000	1147.471069	27.334999	37.226875	3.924375
14.701000	-14.579000	1095.010986	10.631250	22.929375	3.990000
-15.372000	-30.316999	1107.211060	8.115625	-2.918125	13.531875
-15.616000	-2.928000	1077.442993	3.933125	6.269375	14.087500
-1.525000	6.283000	991.127991	1.356250	4.865000	14.660625
-26.474001	-71.675003	812.031982	-12.744375	36.811249	9.830625
-83.447998	73.626999	699.731018	-0.621250	40.613125	0.853125
-53.741001	29.951000	749.324036	0.306250	-5.031250	7.962500
-116.875999	26.413000	856.684021	13.965000	6.776875	8.750000
-125.172005	29.646000	894.565002	10.360000	3.141250	-13.076875
37.758999	-35.319000	692.044983	48.593124	15.566250	3.946250
-95.465004	71.980003	996.069031	63.039375	-5.748750	5.639375
-171.654007	45.445000	1106.600952	-47.713749	12.897500	10.981250
-90.036003	12.749001	918.354980	-63.616875	36.141876	-9.966250
-63.440002	-52.887001	856.501038	-15.281875	-0.433125	-6.273750
-89.059998	-10.553000	943.182007	36.168125	0.323750	6.864375
-113.459999	22.326000	1090.130981	32.169376	-19.849375	4.392500
-98.514999	29.158001	1021.689026	-8.491875	-3.570000	-3.718750
-68.014999	29.341000	964.958984	-1.872500	3.937500	-1.303750
-98.881004	52.033001	1005.218994	13.488125	-7.923125	1.981875
-69.295998	60.938999	1070.367065	9.502500	0.249375	-1.391250
-83.570000	26.413000	1080.370972	-10.290000	-0.411250	1.946875
-115.960999	10.797000	988.627014	-8.220625	4.663750	1.295000
-96.806999	15.250000	996.374023	0.542500	2.926875	-0.166250
-94.488998	12.139000	1012.721985	1.627500	-0.420000	1.938125
-55.021999	23.607000	1024.556030	-0.730625	2.362500	3.688125
-75.517998	14.274000	1015.040039	-0.459375	4.130000	11.270000
-130.417999	39.101002	1025.531982	1.369375	-0.581875	6.426875
-76.615997	36.478001	1009.916016	-0.901250	3.123750	-0.411250
-93.757004	23.118999	1010.526001	-1.290625	1.518125	0.730625
-76.615997	21.350000	1000.033997	-1.058750	0.533750	-0.953750
-88.694000	21.960001	994.788025	-0.599375	0.293125	1.588125
-74.481003	14.518001	997.350037	-1.841875	-1.544375	1.085000
-75.152000	22.875000	1017.968018	-1.938125	-4.856250	5.547500
-105.408005	31.476000	999.302002	-5.670000	3.819375	4.055625
-81.618004	27.816000	993.445984	-4.462500	-0.752500	0.669375
-82.594002	3.721000	1020.652039	-1.535625	-6.916875	2.156875
-67.954002	15.250000	1063.169067	2.463125	-1.811250	2.979375
-92.292999	18.056000	1028.155029	-8.636250	1.001875	5.306875
-92.475998	15.128000	941.473999	-7.560000	3.447500	1.299375
-60.146000	25.742001	909.510010	5.683125	6.864375	0.363125
-56.303001	18.361000	960.262024	7.415625	-4.121250	0.118125
-55.875999	19.642000	934.885986	-6.755000	-10.675000	-0.739375
-51.850002	11.651000	914.572998	-2.008125	-4.287500	-1.430625
-60.389999	16.653000	884.317017	3.150000	-2.450000	-0.826875
1.342000	-50.081001	867.114990	3.635625	12.079375	-2.528750
-11.529000	17.750999	881.694031	12.398750	6.304375	18.274376
-90.829002	106.384003	902.617004	13.724375	-18.396875	25.379375
-86.498001	51.910999	992.592041	7.638750	-19.709375	12.945625
-19.276001	39.284000	1006.561035	0.214375	-9.629375	8.509375
-11.041000	61.976002	919.453003	-29.973125	4.348750	-1.671250
-23.424000	-2.562000	1000.095032	12.145000	-31.972500	-11.134375
22.326000	51.789001	1133.989990	5.871250	-30.209375	-10.163125
18.849001	14.701000	1285.208984	7.660625	-37.025623	-14.056875
64.781998	31.720001	1344.867065	-4.869375	-20.195000	-3.058125
-32.330002	35.746002	1440.453979	9.148125	-29.771875	1.019375
121.084999	-4.026000	1490.352051	-4.593750	5.315625	5.228125
15.799000	67.649002	1309.060059	-25.795000	35.485626	21.608126
-15.738000	60.938999	1145.519043	-11.077500	26.429375	2.222500
3.782000	43.615002	1119.472046	-0.774375	15.006250	-6.457500
29.524000	24.948999	1156.133057	5.705000	9.865625	-6.982500
-67.466003	18.726999	1112.701050	-5.276250	10.093125	-6.308750
-6.405000	2.074000	1093.546997	-13.234375	24.215626	-10.193750
-52.459999	-36.355999	990.335022	-19.766251	14.630000	-1.220625
-41.358002	-11.712000	902.861023	1.019375	24.810625	6.129375
-52.154999	3.904000	893.833008	11.891250	7.126875	14.931875
-78.873001	3.904000	829.173035	6.409375	17.228750	8.557500
-52.399002	11.041000	847.351013	1.999375	16.725624	5.390000
-68.381004	-15.189000	885.658997	-12.333125	18.528126	9.345000
-103.273003	-20.252001	812.947021	-18.882500	11.532500	4.195625
-85.583000	-25.254000	811.056030	-6.711250	9.463125	-3.246250
-80.398003	-28.670000	905.484009	17.211250	0.258125	1.793750
-116.265999	2.989000	957.882996	6.483750	-0.595000	7.336875
-136.701004	15.494000	972.583984	-0.192500	-4.917500	3.898125
-79.056000	-7.259000	981.978027	6.190625	-2.865625	-4.943750
-168.360001	22.509001	1273.619019	-1.973125	2.756250	3.097500
-116.144005	-4.636000	922.991028	-12.197500	-15.859375	-1.303750
-115.655998	43.371002	1133.075073	4.445000	10.224375	0.809375
-140.727005	-9.882000	980.697021	-14.498750	3.058125	-2.800000
-123.647003	-9.089000	982.648987	2.931250	2.301250	-5.355000
-118.340004	-20.434999	1045.417969	1.942500	3.049375	-2.611875
-118.340004	-24.521999	991.677002	2.178750	0.043750	-2.292500
-111.996002	-14.457000	1029.984985	-0.441875	2.738750	-4.195625
-114.924004	2.440000	975.877991	-0.196875	1.321250	-2.642500
-111.813004	-24.705000	1000.643982	-1.085000	-0.245000	-2.795625
-107.420998	-2.989000	1000.338989	-2.782500	-3.810625	-1.089375
-101.503998	-14.030000	1011.502014	2.730000	-7.078750	-0.870625
-108.092003	11.590000	1007.049011	3.570000	0.498750	0.927500
-99.186005	-19.886000	1008.635010	5.687500	-2.664375	1.509375
-94.793999	-14.457000	1017.358032	2.248750	-4.515000	0.993125
-95.586998	0.732000	955.626038	4.326875	-1.115625	2.065000
-83.387001	15.006001	998.509033	9.100000	-5.468750	1.067500
-81.251999	16.226000	974.109009	6.768125	-4.593750	2.108750
-69.235001	1.586000	1024.190063	5.236875	-4.628750	1.277500
-101.625999	25.437000	1017.053040	-1.986250	-2.966250	-1.115625
-75.212997	-2.806000	1001.986023	-9.082500	-0.892500	-4.099375
-79.848999	36.539001	1006.012024	-13.978125	3.097500	-3.692500
-86.620003	13.115000	984.113037	-8.881250	4.436250	-1.452500
-75.212997	6.832000	985.150024	-4.991875	0.805000	-0.743750
-79.117004	-5.734000	991.250000	5.123125	-7.249375	-0.157500
-84.729004	-8.113000	1047.796997	3.565625	-5.670000	0.455000
-86.558998	2.928000	1041.941040	4.436250	-4.650625	1.159375
-77.897003	-5.246000	1065.547974	-0.148750	1.881250	0.516250
-80.276001	-0.366000	1024.006958	-2.738750	1.251250	1.548750
-68.930000	-1.159000	1021.140015	0.581875	4.821250	1.898750
-80.520004	9.455000	983.075989	-1.360625	3.119375	0.936250
-72.711998	3.782000	946.354004	0.936250	4.641875	-0.599375
-64.538002	-11.102000	955.687012	-1.159375	-2.095625	-0.371875
-67.344002	9.394000	848.510010	-0.573125	4.738125	-0.048125
-73.626999	22.691999	808.189026	9.760625	16.104376	-1.098125
-22.021000	-17.873001	733.463989	-10.810625	-0.603750	2.651250
-71.492004	34.160000	815.447998	2.721250	14.616875	1.207500
-110.715004	-8.479000	914.450989	-12.713750	-5.166875	-3.145625
-52.459999	-24.095001	917.195984	-11.659375	-11.418750	-8.347500
-43.859001	-52.521000	911.705994	-14.336875	-10.985625	-6.741875
23.241001	-18.239000	1101.537964	-20.299999	-22.688749	-4.287500
-3.843000	-49.653999	1291.369995	-18.116875	-41.654373	-0.332500
-17.690001	-124.867004	1308.145020	0.266875	-21.743750	1.203125
-82.594002	-152.195007	1429.352051	24.920000	-41.654373	-6.615000
-76.555000	-7.015000	1508.651978	42.214375	-21.787500	-4.418750
-60.695000	-1.403000	1517.497070	31.123751	-7.332500	-3.955000
71.003998	62.281002	1381.284058	13.208125	21.577499	-3.688125
37.271000	52.948002	1242.143066	-8.474375	20.138124	-7.717500
32.390999	37.637001	1113.432983	-1.518125	19.088125	-3.233125
21.960001	7.747000	1098.122070	6.912500	27.076876	-1.211875
-39.589001	44.285999	1078.968018	-0.218750	21.599375	9.152500
-34.221001	-43.798000	1007.842041	-16.471874	16.065001	12.766250
-47.763000	-2.013000	973.072021	-2.821875	15.579375	13.370000
-113.094002	35.257999	876.509033	-10.570000	23.520000	6.680625
-44.469002	-5.551000	760.059998	-6.619375	28.765625	7.529375
-195.261002	63.257000	844.423035	32.086250	17.250626	1.032500
-74.054001	57.218002	933.056030	0.358750	31.583124	-13.116250
-99.002998	31.415001	818.315002	-15.255625	36.675625	0.966875
-151.524002	5.978000	762.134033	5.643750	31.679375	-1.036875
-155.001007	9.394000	904.325012	10.858750	13.750625	-3.303125
-188.612000	3.111000	956.541016	-7.350000	5.066250	-0.691250
-186.354996	10.980000	890.478027	-10.854375	-3.959375	-4.685625
-257.175995	5.612000	860.405029	-0.813750	2.716875	-1.365000
-171.531998	28.059999	1055.239014	-22.185625	-6.759375	-11.462500
-148.779007	-25.315001	836.005005	-3.657500	-4.340000	-6.037500
-254.736008	26.413000	1022.481995	23.638124	-9.520000	-2.625000
-125.050003	-30.500000	1038.342041	6.689375	-10.294375	-18.064375
-171.837006	-10.309000	1011.502014	1.505000	-8.640625	6.698125
-192.638000	5.856000	1015.223022	5.643750	-7.411250	-1.955625
-144.509003	9.760000	1012.051025	3.692500	-5.066250	-1.605625
-172.386002	36.234001	1000.949036	3.206875	-2.296875	0.542500
-160.247009	28.059999	979.416016	2.568125	-1.058750	-2.808750
-119.926003	15.860001	994.971008	13.829375	-5.748750	3.828125
-168.360001	27.816000	1041.453003	-5.766250	-7.853125	8.723750
-158.294998	8.845000	1033.706055	-10.644375	1.758750	-3.570000
-135.664001	13.969000	978.806030	-13.405000	-1.421875	-7.980000
-140.787994	15.982000	1020.286011	-5.880000	-5.149375	-3.176250
-126.880005	-0.732000	1007.049011	-7.879375	-6.435625	2.896250
-138.165009	-20.069000	995.520020	-1.334375	-4.090625	1.575000
-131.333008	1.891000	1031.448975	-0.223125	-12.486250	-0.131250
-114.741005	-14.823000	996.191040	-0.231875	-8.365000	0.984375
-101.443001	2.928000	950.624023	3.430000	-4.541250	1.491875
-105.591003	-9.577000	924.333008	0.665000	-11.641875	2.270625
-69.905998	-9.943000	895.968018	5.551875	-13.899375	1.085000
-70.028000	10.614000	878.522034	2.450000	-15.566250	4.523750
-50.264000	-8.052000	909.876038	-0.765625	-17.250626	2.646875
-45.993999	26.840000	844.728027	5.131875	-8.850625	1.159375
-45.262001	25.986000	918.660034	5.726875	-23.695000	3.976875
-55.327000	36.234001	838.750000	2.108750	-12.862500	-2.703750
2.989000	22.691999	881.816040	-8.666875	-12.941250	2.353750
-44.774002	23.118999	903.226990	-18.182501	-14.021875	1.225000
14.884000	-59.841000	941.351990	-14.647500	-30.279375	-18.711876
-16.165001	-12.627000	1014.918030	19.543125	1.793750	-18.576250
63.440002	38.125000	1020.773987	1.190000	-12.433750	-25.720625
141.214996	-49.715000	1039.683960	-3.893750	-45.744999	-10.850000
159.210007	-39.406002	1190.659058	-0.350000	-22.903126	-0.835625
186.843002	-24.583000	1241.959961	8.627500	-42.153126	7.678125
85.827003	37.027000	1404.342041	4.930625	-1.478750	11.361875
102.236000	15.860001	1400.743042	2.445625	-19.521250	11.978750
56.547001	43.615002	1591.489990	-11.173750	0.008750	1.837500
177.570999	-4.392000	1306.498047	-8.176875	28.673750	-3.106250
152.561005	-18.483000	1199.808960	6.321875	27.877501	3.941875
53.313999	-27.267000	1250.195068	4.659375	23.450001	1.172500
73.383003	27.328001	1164.489990	22.946875	33.543125	-6.370000
1.342000	48.739002	1077.931030	-1.828750	29.330000	-2.458750
11.285000	18.666000	1036.817017	11.261250	24.469376	-5.320000
-6.649000	56.608002	935.434998	-2.734375	36.189999	-4.143125
-35.380001	16.958000	939.949036	1.251250	7.739375	-5.114375
-16.896999	47.091999	877.302002	7.835625	37.913750	-2.126250
-79.726997	37.088001	845.093994	10.447500	20.286875	1.041250
-19.093000	-0.976000	836.127014	1.907500	8.522500	-0.923125
-61.366001	47.031002	842.348999	2.476250	35.953751	-3.850000
-91.377998	27.511000	839.238037	-3.346875	10.062500	-4.878125
-106.079002	48.434002	841.921997	-8.067500	3.491250	-8.929375
-95.953003	43.371002	853.023987	-6.435625	5.385625	-6.960625
-103.151001	42.334000	901.153015	2.008125	-15.876875	-4.309375
-93.573997	54.107002	971.851990	3.517500	-14.183750	1.666875
-69.723000	16.896999	978.806030	0.857500	-10.250625	8.483125
-71.370003	37.881001	1021.079041	-6.838125	-14.052500	8.920625
-48.739002	17.629000	996.130005	-8.876875	-12.057500	7.288750
-60.756001	37.088001	1029.497070	-5.438125	-10.902500	3.766875
-75.457001	27.816000	1034.010986	-1.960000	-7.931875	5.372500
-56.973999	27.145000	1023.031006	-7.756875	-15.356250	9.226875
-41.541000	1.525000	1034.010986	-1.015000	-0.402500	4.270000
-25.986000	8.540000	1008.879028	-0.533750	-7.831250	3.220000
-22.570000	10.309000	1011.746033	0.638750	1.583750	3.150000
-17.019001	21.533001	1010.281982	-4.471250	-9.113125	2.673125
-29.280001	18.177999	1008.025024	-3.307500	2.108750	0.971250
-23.912001	19.276001	1027.728027	-2.581250	-2.975000	-0.840000
-25.925001	6.832000	1006.134033	-0.472500	-2.121875	-0.573125
-20.984001	17.202000	1015.101013	4.458125	-4.055625	1.168125
-20.252001	6.649000	1047.492065	7.135625	-4.138750	-0.704375
-9.699000	26.047001	1036.451050	-1.032500	-0.196875	-2.476250
-18.177999	28.548000	1013.942017	-1.443750	2.222500	1.050000
-21.960001	7.137000	1009.611023	-0.161875	2.008125	-1.067500
-16.165001	16.287001	1031.937012	-1.233750	2.336250	-1.916250
-10.736000	23.973000	1007.598022	-3.959375	1.334375	-1.841875
-21.960001	12.444000	980.941040	-2.738750	-0.385000	-1.233750
-19.215000	8.845000	1013.575989	2.419375	-1.001875	-1.666875
-4.514000	25.681000	1034.987061	3.486875	-0.695625	-2.721250
-15.982000	27.205999	1059.630981	-0.288750	0.870625	-1.207500
-11.224000	27.084000	1027.178955	-0.966875	1.671250	-1.688750
-16.775000	29.463001	1022.786987	0.490000	1.662500	-2.156875
-24.521999	22.753000	994.056030	0.061250	4.480000	-1.435000
-27.267000	10.126000	968.375000	-3.815000	2.331875	-1.155000
-24.156000	6.344000	950.562988	-6.260625	3.005625	-0.161875
-28.609001	3.416000	921.405029	-1.198750	5.293750	0.218750
-37.027000	6.466000	854.427002	12.420625	5.228125	0.078750
-61.915001	5.551000	748.835999	25.090626	0.179375	-6.645625
7.381000	13.908000	743.712036	32.116875	-3.001250	-8.649375
-2.745000	57.767002	717.421021	22.242500	-9.677500	3.141250
-16.653000	29.768000	834.419006	-1.614375	-8.268750	8.566250
19.459000	31.476000	775.371033	1.981875	-15.544375	1.181250
-6.588000	101.992004	1018.760986	-5.516875	-23.734375	-1.295000
8.296000	142.007996	1108.492065	-13.908125	-46.221874	-7.223125
83.264999	68.869003	1104.161011	-20.195000	-30.191875	-3.836875
123.280998	88.206001	1220.305054	-24.543751	-25.173750	4.370625
147.986008	28.487000	1157.414062	-26.508125	8.063125	7.682500
128.649002	11.712000	1258.186035	-27.116249	18.383751	13.208125
114.985001	-25.802999	1303.082031	-16.786875	21.275625	5.560625
-5.490000	-65.819000	1438.014038	4.913125	-14.376250	8.649375
-19.398001	10.736000	1459.729980	18.051250	-25.436251	-2.104375
72.163002	53.862999	1408.368042	17.780001	-7.135625	-11.703125
161.589005	87.840004	1216.766968	19.674376	3.976875	0.245000
146.949005	63.013000	1272.520996	4.935000	13.339375	5.267500
92.780998	32.146999	1158.390015	0.691250	24.657499	7.385000
101.260002	34.098999	1146.556030	6.457500	22.990625	3.351250
37.881001	15.921000	1124.718018	-18.090626	24.981251	-9.340625
76.737999	58.194000	935.679016	-47.381248	-26.740000	-37.878750
13.603000	5.490000	986.492004	-13.575625	68.206253	-16.738750
43.615002	1.830000	699.304016	-27.943125	30.218124	0.389375
-12.444000	-34.587002	701.317017	19.844999	19.766251	12.236875
-36.539001	3.477000	826.794006	19.578125	-4.217500	4.585000
-11.651000	22.264999	828.562988	15.404375	8.540000	10.688125
-27.267000	25.864000	856.989014	8.553125	0.332500	10.561250
-46.542999	31.903000	910.851990	12.665625	-1.312500	8.561875
-35.563000	28.914000	892.856995	20.085625	-14.371875	2.821875
-19.337000	60.817001	962.031006	18.423124	-2.821875	2.716875
-20.923000	58.255001	955.992004	13.886250	-17.745001	1.780625
7.015000	55.754002	1027.118042	5.420625	-4.112500	-0.380625
13.664001	56.364002	1055.421997	-8.146250	-10.316250	-4.585000
11.956000	83.264999	1026.203003	-7.498750	9.563750	-4.830000
-12.566000	52.521000	997.228027	-15.321250	5.823125	-0.752500
-20.191000	29.402000	1054.202026	-16.944374	10.220000	-5.223750
-20.923000	29.646000	1023.153015	-17.412500	6.706875	-5.862500
-17.385000	5.551000	1005.218994	-11.038125	6.956250	-3.263750
-41.174999	6.588000	1019.492981	-4.060000	4.186875	-3.167500
-29.402000	2.257000	999.119019	-3.753750	-0.319375	1.942500
-26.230000	-7.198000	1018.273010	-0.590625	6.733125	2.235625
-26.657000	-0.061000	1018.212036	-5.285000	-5.613125	1.697500
-22.143000	5.246000	993.629028	-6.781250	-3.325000	-0.848750
-22.691999	-2.074000	978.074036	-6.356875	-4.523750	-3.600625
-18.910000	5.063000	973.621033	-9.909375	-4.475625	-4.130000
-14.213000	-5.368000	981.551025	-16.126249	-5.245625	-1.986250
4.148000	-47.153000	1091.350952	-9.358125	-17.674999	-2.266250
24.339001	-51.240002	1267.763062	-5.311250	-10.316250	-4.895625
-12.566000	-38.430000	1396.778076	7.008750	-14.555625	-1.041250
-34.403999	-13.725000	1373.171021	1.701875	-3.040625	1.653750
-35.806999	-17.446001	1262.029053	0.350000	-1.058750	-1.036875
3.538000	-15.921000	1189.682983	-6.680625	7.026250	-2.086875
-7.076000	-33.793999	1079.760986	-10.823750	25.777500	0.581875
-18.177999	-3.355000	1018.822021	-4.108125	23.428125	-4.366250
-43.188000	-6.161000	982.221985	-0.625625	17.408125	0.603750
-50.386002	-2.745000	957.760986	12.298125	16.664375	1.872500
-32.330002	0.549000	841.921997	22.386875	5.779375	2.126250
-54.107002	13.786000	851.499023	31.775625	-6.790000	-3.876250
-31.598000	14.274000	836.737000	30.336250	23.576876	-4.462500
-46.299000	7.320000	764.513000	23.887501	18.121250	-4.593750
-71.675003	29.829000	655.018005	7.791875	0.647500	-13.479375
-2.989000	37.758999	704.549988	-9.620625	23.401875	-7.774375
50.630001	-15.311000	742.431030	-18.191250	13.562500	-11.698750
-11.529000	48.617001	702.963989	-2.410625	22.006250	-8.435000
-14.091001	34.831001	777.140015	-10.080000	1.610000	4.580625
-31.537001	-9.821000	753.593994	-21.371876	-10.766875	22.338751
-38.612999	-15.555000	752.617981	-18.243750	-25.418751	23.909374
-8.174000	-43.554001	820.205994	-13.221250	-36.382500	16.003750
-67.892998	-33.793999	872.178040	-9.257500	-1.645000	-1.338750
-63.744999	-35.136002	865.285034	-16.248751	-52.959373	-9.480625
-51.484001	-44.896000	991.311035	7.315000	-11.248125	-13.400625
19.703001	-21.594000	1037.305054	31.040625	-40.398750	-8.347500
-0.793000	1.403000	1125.876953	26.481874	-16.870001	-3.303125
105.042000	32.390999	1178.093018	38.272499	-77.323753	-2.231250
95.953003	55.815002	1354.810059	9.826250	30.235624	-10.237500
62.464001	139.628998	1598.932007	-25.348749	-37.388748	-4.248125
67.832001	89.487000	1495.232056	-17.963751	11.620000	-1.181250
68.747002	79.178001	1324.553955	-9.625000	9.804375	5.197500
53.924000	49.043999	1198.161987	-0.761250	16.799999	9.165625
25.681000	14.640000	1063.596069	-8.137500	28.892500	4.230625
14.213000	23.790001	967.765015	-17.530624	29.990625	-1.159375
-0.122000	12.078000	960.018005	-25.151875	23.533125	-2.992500
-14.640000	-27.755001	986.614014	-12.770625	12.302500	-4.025000
-8.784000	-28.059999	997.655029	-11.593750	4.633125	-6.173125
-2.562000	-39.528000	975.390015	-5.713750	7.144375	-4.300625
2.257000	-32.695999	993.080017	0.428750	1.981875	-1.080625
-2.745000	-44.713001	1001.864014	8.872500	1.544375	2.047500
-9.821000	-36.112000	993.202026	9.423750	-6.256250	0.074375
1.281000	-34.587002	997.166992	11.449375	-2.681875	-1.811250
-3.355000	-19.459000	1008.757019	5.766250	2.660000	1.045625
5.734000	-17.873001	986.919006	-0.713125	0.070000	0.183750
20.679001	1.098000	952.515015	2.266250	2.520000	3.959375
-21.350000	-41.174999	1024.800049	-1.920625	-4.116875	2.493750
-18.605000	-35.624001	1049.443970	-2.231250	1.925000	-0.630000
-13.481000	-9.089000	1034.682007	-2.393125	-0.026250	-1.220625
-15.250000	-13.176001	1024.677979	-3.180625	4.742500	0.175000
-15.860001	-26.352001	1006.195007	1.995000	1.675625	0.328125
-2.867000	-13.786000	1008.757019	3.333750	3.753750	0.608125
2.074000	-16.592001	980.208984	4.418750	-0.140000	0.249375
-7.320000	-1.281000	977.585999	6.378750	-1.863750	0.975625
-0.793000	10.553000	973.316040	7.853125	-1.846250	1.811250
-3.721000	11.041000	1001.742004	0.660625	-5.722500	1.041250
9.394000	-5.429000	994.178040	-0.669375	-3.233125	-3.596250
21.106001	27.938000	969.229004	2.056250	-0.630000	-1.750000
2.135000	21.167000	1010.953003	4.353125	-10.850000	1.509375
10.492001	-2.745000	1182.424072	13.720000	-12.083750	3.578750
9.150001	20.618000	1368.229980	13.138125	-13.776875	2.926875
7.930000	21.410999	1483.641968	17.320625	-9.371250	0.406875
5.612000	116.144005	1413.369995	7.630000	-19.381250	6.790000
31.293001	43.737000	1252.696045	-13.536250	-22.190001	7.048125
34.038002	42.151001	1182.119019	-9.257500	-16.598749	1.456875
18.239000	29.889999	1126.730957	4.116875	13.142500	-6.741875
45.506001	84.545998	1071.098999	10.915625	-24.316250	-10.998750
52.764999	92.964005	1000.827026	13.335000	28.765625	-7.249375
54.046001	108.458000	923.052002	6.685000	48.431252	-13.181875
60.878002	88.511002	990.822998	-12.188750	33.389999	-5.958750
60.207001	51.056999	875.898987	-17.145624	53.624374	6.553750
17.690001	-12.993000	777.078979	-11.764375	37.528751	1.207500
-22.021000	2.257000	621.651001	13.558125	49.857498	-6.820625
-106.079002	40.320999	541.252991	12.481875	49.818127	-5.376875
-102.723999	8.784000	544.242004	-19.018126	9.415000	5.814375
-48.007000	-7.076000	579.744019	-19.232500	9.016875	0.035000
-54.778000	-2.928000	629.398010	-11.948125	0.472500	-12.630625
-45.506001	33.793999	719.372986	-13.510000	-15.001875	-10.101875
-44.529999	-42.882999	764.757019	-14.949375	-27.488125	-1.194375
-41.846001	-48.861000	748.897034	-8.303750	-38.443127	-8.312500
-47.824001	0.549000	849.913025	7.748125	-3.543750	-3.990000
-71.736000	-35.746002	798.794983	5.696250	-38.202499	-3.613750
-11.163000	-3.660000	919.392029	29.211876	-7.398125	-3.631250
10.553000	102.601997	1273.619019	5.971875	-36.789375	1.207500
25.132000	-68.990997	1093.058960	-41.960625	-68.355003	3.539375
-35.685001	30.316999	1302.776978	-24.456249	18.760000	-6.545000
2.440000	-82.594002	1176.933960	-23.576876	22.758751	-8.102500
2.196000	-48.250999	1278.743042	-8.763125	-14.258125	-2.843750
-19.032000	-36.112000	1446.370972	14.870625	3.128125	8.732500
-51.118000	16.958000	1500.966064	-3.395000	-29.155001	3.766875
-17.934000	-52.338001	1345.416016	-3.793125	15.583750	-8.190000
12.078000	-43.066002	1139.358032	4.278750	2.988125	-9.511250
-9.211000	-46.542999	1067.255981	16.187500	9.638125	-9.756250
-30.439001	8.418000	1044.136963	21.122499	8.907500	-6.094375
4.697000	-11.651000	975.329041	7.704375	5.652500	-2.266250
12.993000	0.000000	974.109009	11.878125	7.126875	3.036250
-8.540000	-16.042999	978.684021	11.169375	10.941875	5.600000
9.089000	-27.938000	917.074036	11.991875	7.109375	5.998125
-31.293001	76.494003	973.864990	26.306875	13.046250	10.395000
-11.285000	61.732002	969.838989	5.617500	-8.019375	2.935625
0.244000	73.444000	947.268982	2.611875	-5.153750	2.668750
-7.442000	55.754002	995.458984	-0.385000	2.012500	5.967500
-8.052000	55.449001	1005.768005	-1.999375	1.089375	10.648750
-0.732000	44.591000	991.859985	-6.243125	-1.920625	12.215000
-5.856000	44.957001	1001.132019	-1.745625	9.108750	11.370625
-26.291000	19.459000	1047.431030	-6.448750	-4.681250	8.855000
-33.489002	-22.082001	1066.341064	-8.338750	2.581250	1.120000
-41.236000	17.019001	1045.174072	-5.123125	2.065000	-7.896875
-14.518001	49.471001	1026.568970	-8.548750	4.221875	-7.385000
-27.632999	20.434999	1016.077026	-9.065000	4.016250	-0.052500
4.209000	17.446001	1013.637024	0.590625	3.062500	2.957500
-16.104000	14.091001	1024.250977	4.423125	2.200625	7.118125
-19.032000	25.620001	985.760010	4.042500	3.320625	6.978125
-35.624001	48.494999	1017.968018	-0.354375	2.222500	5.061875
-37.820000	22.997000	1012.783020	-3.351250	1.946875	2.594375
-28.304001	16.165001	1020.835022	2.240000	1.833125	1.850625
-15.921000	30.927000	1021.567017	6.133750	-0.595000	1.238125
-16.836000	23.912001	1007.049011	1.211875	-0.021875	-1.456875
-25.315001	29.829000	1062.619995	-4.904375	-0.402500	-3.867500
-55.998001	72.406998	1333.765015	-10.259375	-4.414375	0.840000
-68.564003	-6.222000	1486.020996	-7.205625	5.438125	-0.293125
-76.737999	23.912001	1431.547974	22.920626	9.331875	-8.833125
-84.424004	63.318001	1379.942017	-4.628750	-19.683125	-13.925625
-43.188000	33.793999	1301.862061	-10.150000	-35.682499	-16.493750
6.466000	68.381004	1129.109985	-9.568125	-0.700000	-16.318750
-34.282001	9.821000	1097.878052	5.827500	16.926874	-12.363750
-16.714001	49.897999	952.210022	11.318125	41.680626	-11.698750
-47.824001	11.285000	950.867981	9.716875	51.047501	9.922500
-27.328001	41.418999	753.655029	13.895000	13.615000	18.326876
-52.582001	52.033001	816.851013	18.865000	51.148125	27.448750
-35.685001	9.150001	605.729980	-2.935625	8.929375	25.283125
-58.621002	2.135000	589.992004	7.157500	21.682501	13.632500
-58.011002	46.848000	600.606018	0.358750	6.575625	-0.927500
-66.001999	41.541000	616.893005	4.764375	1.553125	-2.905000
-20.069000	5.185000	649.650024	-18.969999	-28.918751	3.342500
6.344000	29.036001	636.962036	-12.451250	-27.431250	8.141875
-6.100000	7.686000	718.945984	0.140000	-23.191875	3.972500
18.483000	13.237000	709.002991	-8.373750	-46.134377	4.125625
28.609001	31.049000	861.015015	-2.415000	-30.331875	-3.469375
9.943000	9.333000	829.294983	-25.659374	-34.015625	-4.563125
33.306000	91.987999	949.465027	-31.906876	-41.698124	-9.108750
24.339001	41.114002	996.069031	-13.024375	-66.692497	-3.408125
101.748001	-47.396999	1111.724976	11.156250	-36.067501	-12.713750
113.399002	31.720001	1149.178955	17.941875	-40.608749	-4.331250
91.744003	19.764000	1250.988037	11.865000	-33.123123	-8.868125
234.667007	62.281002	1084.092041	17.049376	-53.095001	-4.200000
179.522995	14.457000	1372.927002	-3.001250	-17.885000	-8.185625
247.171997	99.612999	1224.270020	-31.132500	-3.001250	-15.054375
213.317001	64.416000	1302.716064	-39.611252	0.560000	0.503125
215.574005	-32.695999	1197.979004	-35.831249	4.130000	8.666875
194.346008	-63.379002	1197.063965	-21.380625	30.467501	8.763125
157.501999	-93.269005	1138.260010	-9.043125	20.125000	4.843125
133.772995	-61.122002	1085.739014	1.820000	16.839375	3.193750
134.688004	-69.662003	1015.710999	3.320625	15.093750	2.511250
115.839005	-45.872002	1013.393005	8.544375	11.882500	2.830625
101.015999	-43.920002	980.941040	19.639376	17.924376	3.793125
100.528000	-40.320999	975.755981	18.059999	10.395000	4.007500
122.427002	-21.167000	982.405029	16.174376	8.312500	8.098125
105.103004	5.551000	1021.018005	11.322500	5.853750	9.331875
111.264000	9.821000	1006.195007	3.167500	6.133750	8.973125
90.889999	-5.612000	1010.160034	0.105000	10.338125	5.088125
75.945000	-15.860001	992.286987	-4.970000	7.371875	-0.420000
74.298004	-25.254000	993.202026	-2.270625	12.941250	-4.690000
55.815002	7.015000	1011.929016	0.306250	6.746250	-5.022500
77.897003	11.041000	994.421997	8.938125	9.506875	6.317500
68.502998	-15.128000	1006.804993	7.625625	5.333125	7.231875
62.464001	9.089000	1003.937988	5.193125	4.690000	1.964375
47.336002	21.410999	1019.676025	2.117500	1.439375	-3.211250
29.402000	11.102000	1032.058960	-4.265625	1.343125	-4.830000
33.549999	7.747000	1021.018005	-10.255000	1.973125	-6.496875
41.785000	8.235000	1021.872009	-12.083750	0.415625	-4.781875
34.403999	-22.753000	1028.216064	-5.958750	5.691875	-2.353750
43.615002	-2.562000	1014.918030	-0.984375	2.170000	0.188125
49.959000	-10.797000	1003.205994	0.980000	0.240625	2.533125
39.040001	3.477000	1037.000000	5.096875	0.800625	2.371250
26.108000	4.880000	1069.208008	4.291875	-1.688750	3.049375
28.853001	-7.442000	1293.260986	11.108125	-16.261875	3.653125
5.307000	-18.300001	1344.989014	5.040000	-27.925625	8.373750
-9.760000	36.660999	1390.067993	19.236876	11.418750	6.081250
11.712000	86.315002	1267.458008	14.634375	11.908750	6.790000
45.688999	43.005001	1268.617065	17.211250	14.389375	11.589375
39.284000	104.249001	1212.619019	8.400000	13.982500	15.220625
102.785004	50.142002	1006.439026	-12.993750	-6.286875	27.606251
43.980999	110.653999	1063.596069	19.753124	19.455626	15.273125
60.084999	75.884003	1016.260010	18.243750	27.825001	7.437500
19.886000	71.553001	932.751038	22.080626	27.523125	-7.021875
26.474001	66.246002	872.056030	2.931250	30.961876	-8.540000
5.002000	56.303001	815.814026	-2.537500	25.427500	-9.187500
-31.537001	64.355003	733.585999	-1.465625	31.946251	0.586250
-112.544998	22.753000	546.377014	-10.167500	17.049376	8.968750
-75.639999	31.598000	535.640991	-15.050000	55.111874	1.487500
-19.764000	-33.123001	611.403015	-27.076876	11.173750	-16.747499
-19.886000	-6.771000	579.561035	-18.160625	14.507500	-27.396250
4.941000	14.152000	681.614014	-10.176250	-20.986876	-21.030624
-32.330002	-10.309000	769.332031	-7.393750	-24.972500	-9.625000
-16.409000	36.660999	840.091980	2.380000	-8.036875	-9.856875
-62.037003	-13.054000	859.062988	-8.662500	-20.085625	2.485000
-68.747002	-7.686000	894.565002	-25.453751	-23.572500	3.123750
-70.515999	-55.510002	1003.632996	-19.464375	-40.188751	3.508750
-49.288002	-15.860001	1102.635986	-1.470000	-30.445625	-6.930000
-60.878002	-5.856000	1180.166992	-11.453750	-18.860624	-6.711250
-83.447998	-30.195000	1155.035034	13.588750	-12.481875	-9.891875
-8.052000	-2.074000	1111.847046	35.822498	-31.390625	-11.458125
18.666000	2.440000	1214.265991	25.169374	-28.516251	-12.600000
42.517002	94.183998	1265.140015	25.305000	-17.850000	-7.931875
56.791000	101.382004	1336.327026	-11.007500	0.691250	-7.905625
64.293999	64.171997	1250.865967	-15.960000	-16.795626	-6.864375
63.318001	56.181000	1146.373047	-3.040625	21.735001	-5.735625
42.761002	101.443001	1050.297974	-5.341875	19.026875	-2.213750
23.668001	44.774002	1042.672974	-11.685625	24.946251	0.800625
27.450001	-14.213000	1092.510010	-23.476250	3.290000	-5.455625
-1.098000	-13.969000	1076.040039	-17.788750	8.128750	-9.310000
14.945000	-21.167000	1025.287964	-5.381250	8.833125	-10.075625
9.150001	-7.991000	1011.319031	6.632500	2.633750	-7.056875
12.871000	-10.248000	1006.255981	3.963750	1.531250	-6.925625
7.015000	4.758000	1030.167969	8.653750	2.979375	-5.385625
24.644001	9.943000	1009.489014	2.375625	-10.456250	-4.510625
29.280001	0.854000	1001.619995	-0.266875	0.507500	-3.561250
11.590000	1.403000	1013.942017	-0.516250	-1.207500	0.000000
27.267000	-5.673000	1004.304016	-1.833125	-0.538125	1.981875
12.932000	-5.063000	1033.523071	-2.397500	1.680000	0.131250
17.446001	-9.821000	1020.652039	-5.573750	3.421250	-1.885625
21.167000	-13.054000	1011.867981	-5.460000	3.465000	-3.220000
12.322001	-22.387001	1002.291016	-10.981250	1.295000	-5.849375
42.456001	-31.537001	960.200989	-16.581249	-0.043750	-6.496875
25.681000	-29.402000	983.991028	-13.129375	-5.464375	-5.018125
20.862000	-32.390999	1019.432007	2.848125	0.065625	-0.630000
10.553000	-39.406002	1040.598999	4.095000	-8.102500	0.319375
13.725000	-20.801001	1032.302979	6.610625	-2.065000	1.850625
25.986000	-20.069000	1014.125000	4.151875	-0.805000	4.650625
25.315001	-28.243000	1030.046021	2.765000	6.641250	3.171875
32.390999	-22.021000	1024.800049	0.914375	-4.471250	0.393750
30.805000	-7.808000	1001.070984	1.430625	2.257500	0.411250
27.267000	-13.969000	996.007996	8.837500	-0.984375	1.404375
31.598000	-1.769000	1007.842041	7.367500	-1.181250	0.713125
36.234001	0.488000	1026.935059	9.148125	-6.650000	2.415000
40.320999	27.145000	1124.291016	6.746250	3.854375	6.308750
58.743000	-2.074000	1349.136963	-2.384375	-4.948125	16.008125
-41.174999	-2.074000	1688.296997	-9.266250	-1.220625	28.931875
-13.176001	-24.827000	1518.656006	-3.605000	9.983750	16.611876
22.997000	-28.914000	1283.989014	-1.995000	-6.737500	8.540000
-9.028000	38.125000	1153.937012	15.846250	3.150000	-0.288750
20.740000	55.327000	1088.605957	0.993125	-9.314375	-10.412500
39.589001	37.271000	990.335022	1.833125	-5.853750	-3.473750
33.367001	50.142002	1025.104980	10.858750	36.522499	1.916250
27.938000	40.320999	888.708984	-5.621875	7.205625	2.843750
-24.217001	45.993999	980.941040	-9.734375	25.112499	-11.130000
6.283000	11.285000	795.927979	-12.915000	7.822500	-18.165001
33.855000	-52.459999	717.908997	15.001875	25.641874	-30.603125
45.811001	16.104000	661.850037	33.118752	40.740002	-23.296875
-19.276001	23.790001	528.809021	25.287500	53.261250	6.693750
-21.167000	-5.124000	535.763000	-10.325000	24.819374	28.910000
-15.555000	-78.812004	473.177002	-7.135625	45.373123	18.733749
-71.492004	-11.895000	561.992981	-19.696251	15.190000	-0.258125
-68.625000	-21.716000	676.062988	-31.867500	-15.426250	-6.212500
-57.584000	1.159000	734.317993	-18.151875	-10.123750	-4.803750
-86.558998	-15.433001	838.078979	3.688125	-36.811249	0.752500
-101.443001	-31.049000	940.132019	17.500000	-26.954374	7.328125
-139.994995	-7.015000	985.760010	4.733750	-28.385000	-10.924375
-105.164001	-15.006001	1059.265015	8.951250	-3.023125	-16.069374
-115.534004	-20.740000	1209.630005	-45.775623	-53.956875	-32.388126
-62.586002	6.161000	1210.545044	-34.015625	7.043750	-33.621876
-29.219000	-60.573002	1166.807983	-11.003125	-27.549376	-21.428749
-30.316999	43.615002	1312.171021	34.273750	2.156875	7.901250
86.010002	-87.413002	1176.506958	32.707500	-50.588123	20.930000
54.411999	55.510002	1317.355957	51.375626	-9.030000	23.458750
56.364002	128.404999	1281.365967	15.456875	-12.971875	23.030001
15.860001	107.116005	1272.643066	4.431875	9.611875	21.371876
59.170002	63.074001	1109.956055	-6.785625	8.172500	14.271250
7.808000	48.617001	1092.327026	-9.060625	22.474375	8.391250
29.402000	30.500000	1012.843994	-20.256250	10.736250	2.585625
9.394000	11.590000	1024.617065	-21.586250	12.998125	-0.157500
5.124000	-31.964001	995.337036	-18.497499	2.725625	-3.158750
6.954000	-8.662000	1001.132019	-1.903125	12.066250	-3.906875
9.760000	-4.941000	1004.242981	-2.301250	-1.811250	-2.384375
5.551000	2.257000	1022.421021	3.241875	3.443125	4.401250
-0.061000	-7.808000	1035.657959	8.636250	0.770000	6.663125
-7.808000	-2.928000	1024.190063	13.111875	7.393750	6.440000
-8.967000	-21.594000	992.470032	15.076250	7.389375	6.225625
-39.528000	34.038002	1018.700012	20.063749	15.990625	4.510625
-16.104000	45.445000	999.241028	6.291250	-2.515625	1.588125
-15.616000	54.411999	1000.705017	6.216875	6.820625	5.158125
-22.143000	41.968002	1006.439026	-5.048750	4.676875	0.218750
-26.718000	50.996002	1005.402039	-7.896875	4.278750	-0.420000
-41.297001	36.966000	1011.624023	-9.996875	3.801875	-0.818125
-30.073000	27.816000	1017.053040	-6.720000	4.501875	-0.332500
-50.569000	10.614000	1027.728027	-1.850625	7.686875	-0.708750
-45.018002	32.025002	1007.598022	-0.918750	4.020625	-0.730625
-38.186001	21.106001	997.777039	-0.201250	0.245000	0.573125
-52.643002	41.114002	1033.645020	1.045625	2.550625	-0.463750
-47.153000	33.062000	1018.395020	-1.408750	1.701875	1.828750
-59.841000	23.668001	1017.480042	-1.093750	0.717500	2.559375
-44.834999	12.688000	1011.867981	1.435000	0.350000	2.432500
-43.798000	30.316999	1014.552002	1.137500	-1.067500	2.708125
-44.103001	16.165001	1013.759033	3.801875	-5.985000	4.243750
-57.035000	8.235000	1063.291016	5.665625	-1.614375	2.069375
-63.989002	44.652000	1185.535034	-0.341250	-14.354375	0.258125
-58.011002	42.090000	1362.191040	-8.312500	-7.581875	1.850625
-73.444000	47.153000	1472.540039	-10.784375	-28.179375	0.966875
-5.246000	48.190002	1321.808960	-4.208750	-30.065001	5.971875
14.579000	19.276001	1281.427002	23.581249	-12.740000	11.086250
21.410999	69.784004	1247.266968	28.188126	4.221875	4.628750
23.058001	76.189003	1155.766968	8.981875	-2.471875	-2.848125
63.318001	65.879997	1087.385986	2.773750	17.749374	1.067500
93.025002	53.313999	1025.714966	11.917500	32.921875	4.445000
20.557001	60.695000	865.833984	14.800625	43.115623	-0.367500
-5.368000	81.984001	843.142029	0.660625	24.254999	-0.735000
-9.028000	32.269001	624.273987	-11.589375	45.513126	6.860000
-48.922001	48.373001	479.338013	-13.081250	53.891251	3.876250
-91.987999	-8.662000	525.820007	-9.196250	34.050625	3.771250
-68.381004	-17.995001	519.354004	-11.655000	8.684375	-3.119375
-45.872002	1.708000	591.151001	-5.665625	9.826250	-1.653750
-52.459999	4.880000	714.432007	-5.512500	-4.274375	-4.086250
-62.341999	8.113000	717.908997	-37.410625	-27.680626	3.145625
-10.980000	-22.936001	825.390991	-29.566250	-13.833750	-1.561875
20.557001	-22.021000	851.255005	-24.530624	-21.888124	9.598750
-91.805000	-56.852001	873.580994	11.860625	-13.628125	3.675000
-59.779999	-65.696999	970.510010	13.098750	-77.214378	-10.548125
-16.896999	-22.814001	1048.223999	1.671250	-38.158749	-14.319375
-28.975000	57.522999	1119.166992	19.123125	-5.359375	-12.446875
-46.360001	14.579000	1182.057983	2.296875	-7.100625	-1.303750
-100.345001	-10.980000	1158.938965	3.981250	33.184376	-10.128125
-65.696999	103.273003	1201.578003	24.850000	-3.338125	-3.893750
-5.246000	48.861000	1158.938965	0.520625	-4.081875	2.310000
11.407001	33.428001	1122.521973	9.086875	-32.506248	13.120625
22.814001	48.434002	1283.623047	-16.078125	-4.480000	5.985000
44.957001	38.735001	1174.738037	-10.053750	-16.870001	5.993750
17.995001	6.527000	1188.157959	-10.526250	-16.576876	1.688750
25.437000	23.729000	1166.747070	10.850000	-16.275000	-3.010000
34.952999	40.443001	1100.500977	10.158750	-4.370625	-4.038125
36.417000	21.289000	1048.589966	5.621875	2.699375	-4.130000
57.950001	31.781000	994.666016	0.861875	6.965000	-4.221875
55.144001	14.396000	989.846985	1.623125	5.635000	-3.272500
54.656002	21.350000	992.348022	-0.258125	0.988750	-6.440000
59.963001	-0.061000	996.801025	-1.150625	-7.713125	-6.391875
50.507999	30.683001	1011.929016	4.576250	1.106875	-8.303750
34.709000	37.942001	1043.709961	-4.160625	2.541875	-9.471875
53.375000	27.450001	994.971008	-8.207500	-1.128750	-2.340625
40.320999	25.559000	1024.739014	0.245000	9.909375	0.883750
46.116001	18.788000	1008.879028	0.288750	3.780000	0.997500
37.576000	24.461000	1022.908997	4.961250	4.598125	-1.465625
48.678001	39.528000	1014.186035	5.206250	3.036250	-1.701875
40.504002	36.966000	1019.249023	1.662500	3.298750	1.513750
39.650002	39.406002	1008.757019	0.791875	3.836875	1.071875
28.914000	29.829000	1012.234009	0.542500	1.120000	0.433125
33.549999	37.393002	1013.637024	2.362500	2.012500	-0.490000
38.368999	50.202999	1011.257996	2.660000	1.330000	-0.791875
32.452000	53.497002	1016.382019	0.520625	0.525000	0.485625
29.524000	38.186001	1014.125000	-1.701875	2.572500	0.918750
29.402000	44.103001	1001.315002	-3.670625	0.927500	0.826875
25.437000	37.758999	995.153992	-3.233125	2.471875	0.826875
32.574001	36.234001	1009.794006	-6.903750	-1.968750	1.487500
33.184002	31.476000	1031.448975	-4.401250	0.385000	1.509375
27.205999	25.681000	1052.615967	0.739375	-0.630000	0.476875
25.498001	38.003002	1048.956055	5.569375	0.739375	0.140000
37.758999	48.922001	1077.992065	4.816875	-0.236250	-0.341250
51.667000	18.910000	1213.411987	3.504375	-13.356875	3.959375
67.649002	-11.590000	1350.661987	6.908125	-12.114375	1.513750
10.309000	147.863998	1444.541016	-20.321875	-33.271873	1.085000
53.497002	117.303001	1330.227051	-30.546249	-5.254375	9.397500
52.704002	-8.723001	1257.209961	-20.173124	21.651875	18.029375
44.042000	-37.942001	1235.128052	7.380625	17.150000	3.740625
88.023003	-7.808000	1185.352051	12.626250	16.541876	-5.521250
69.723000	29.768000	1133.562988	23.419374	26.158125	-10.150000
48.373001	25.315001	903.348999	15.351875	26.551874	-6.208125
-2.745000	8.479000	850.462036	-11.816875	9.130625	-5.735625
-21.472000	11.773000	764.879028	7.179375	25.353125	-11.545625
-18.605000	41.663002	677.100037	28.818125	58.016876	-15.662500
-59.170002	56.608002	570.898987	18.869375	32.567501	-6.273750
-66.184998	21.960001	606.523010	12.464375	25.011875	-2.852500
-28.426001	30.683001	617.197998	-2.218125	26.495001	-1.338750
-14.457000	32.146999	610.244019	-13.868750	11.060000	1.929375
-56.913002	-1.525000	614.270020	-22.334375	-3.605000	10.145625
-65.209000	-25.986000	700.036011	-18.235001	-8.338750	3.552500
-37.637001	49.593002	743.895020	-12.337500	-11.025000	3.985625
-77.714005	38.063999	881.999023	-18.480000	-35.398125	6.435625
-47.153000	-18.117001	885.598022	-2.388750	-51.261875	3.766875
-57.950001	-14.030000	1019.127014	21.113750	-13.479375	-0.743750
-48.617001	41.236000	940.681030	15.898750	-10.570000	0.288750
-55.815002	163.419006	910.851990	2.318750	51.126251	8.841875
-104.309998	93.573997	1048.346069	-33.713749	-30.795626	1.325625
-67.282997	-46.786999	1168.271973	0.083125	22.146250	-3.465000
-19.947001	43.737000	1216.096069	10.018750	-76.365623	-23.025625
-20.801001	73.749001	1321.198975	46.821251	9.563750	-8.071875
5.917000	125.843002	1206.519043	-1.308125	-21.275625	-4.843125
-2.928000	133.529007	1265.322998	10.311875	60.755627	3.206875
-12.505000	122.366005	1222.989014	-30.511250	-32.668125	-7.546875
15.555000	106.384003	1242.813965	-31.176250	-1.286250	-6.986875
3.843000	63.623001	1214.327026	-25.615625	-7.004375	-5.451250
-3.355000	2.562000	1105.747070	-8.767500	-2.607500	-2.314375
2.562000	-17.019001	1017.785034	0.971250	2.253125	-4.322500
3.599000	36.050999	1003.328003	3.224375	-7.660625	-4.051250
27.511000	27.572001	978.989014	-1.128750	-18.549999	-2.191875
43.249001	-6.771000	970.449036	4.519375	-3.434375	3.119375
47.763000	-40.809002	951.539001	12.079375	-6.986875	3.731875
14.213000	45.262001	1027.605957	6.803125	-6.531875	-7.201250
58.376999	42.639000	987.406982	-13.925625	-5.455625	-5.425000
62.646999	7.137000	987.590027	-11.042500	4.694375	-0.796250
38.979000	-8.540000	1023.580017	-7.945000	8.881250	1.872500
25.193001	8.113000	1028.765015	-9.266250	-0.175000	-1.010625
21.045000	-5.795000	1023.518982	-0.415625	2.572500	0.778750
12.200000	9.638000	1029.070068	1.330000	-0.468125	-0.599375
27.145000	5.368000	1021.627991	5.153750	2.191875	0.770000
11.468000	7.198000	1027.789062	3.421250	0.831250	-1.010625
16.896999	21.472000	1030.167969	1.089375	-1.347500	-0.892500
24.278000	15.616000	1025.776001	4.913125	1.019375	0.533750
23.424000	12.810000	1033.583984	5.551875	2.388750	-0.420000
28.426001	27.938000	1013.515015	1.417500	-0.188125	0.385000
26.718000	14.396000	1019.859009	2.493750	6.492500	0.196875
31.415001	26.047001	997.533020	-0.525000	3.027500	-0.665000
33.793999	11.224000	998.875000	-5.293750	4.773125	0.800625
37.453999	12.444000	980.330994	-3.906875	2.108750	1.684375
27.938000	11.224000	1001.497986	-3.609375	-1.820000	0.385000
28.548000	1.586000	1044.563965	-2.349375	-5.941250	-0.056875
13.786000	18.177999	1219.328979	6.772500	-8.583750	-0.175000
-13.420000	54.900002	1445.943970	8.085000	-31.889376	0.078750
48.190002	57.462002	1479.494019	-15.680000	-17.968124	-1.430625
36.660999	2.501000	1453.264038	-31.211250	-5.280625	4.165000
83.570000	-29.889999	1356.884033	-17.504375	9.900625	2.073750
109.800003	-25.498001	1294.541992	-3.727500	-6.518750	-0.721875
134.505005	-23.363001	1155.401001	24.521875	30.966249	-3.596250
147.376007	16.714001	967.033020	19.420626	23.891874	-0.494375
38.612999	27.999001	870.653015	13.934375	43.675625	6.466250
-13.908000	23.058001	739.015015	8.789375	27.155624	4.851875
-35.746002	38.063999	734.927979	35.091873	46.624374	-12.057500
-10.736000	48.739002	683.505005	32.108124	11.427500	-14.328125
-54.900002	16.348000	639.280029	27.934376	49.227501	-13.868750
-59.535999	62.830002	635.010010	1.408750	39.978748	-7.245000
-89.548004	33.977001	593.957031	-19.346251	27.658751	0.590625
-71.675003	10.614000	638.914001	-24.679375	20.684999	-7.892500
-112.728004	11.773000	639.158020	-34.374374	5.578125	-3.368750
-104.614998	1.037000	784.033020	-27.041876	0.918750	-5.341875
-126.453003	-7.564000	854.731995	-17.058125	-1.623125	-7.542500
-131.149994	-30.561001	830.697998	-2.581250	19.827499	-7.883750
-176.046005	0.000000	855.220032	-9.078125	-3.368750	-4.077500
-123.220001	-40.992001	863.272034	-0.918750	2.944375	1.338750
-128.466003	-25.437000	900.177002	4.838750	-51.695000	1.185625
-150.914001	-35.014000	1025.044067	20.050625	-29.281876	-0.078750
-94.976997	0.549000	1174.005981	5.101250	-70.870628	2.196250
-95.465004	33.367001	1278.193970	-21.695625	-38.775623	0.765625
-72.711998	20.130001	1241.289062	-1.019375	-46.235001	-2.515625
30.927000	19.703001	1304.057983	20.558125	-48.409374	5.875625
47.336002	12.932000	1214.631958	35.770000	-22.938126	3.198125
77.714005	124.378998	1261.846069	-7.223125	-19.700624	7.446250
63.318001	73.566002	1266.238037	-13.851250	-4.620000	8.120000
28.914000	36.966000	1119.655029	-30.086876	13.138125	3.670625
6.832000	-0.671000	1039.379028	-22.903126	19.875626	0.039375
2.318000	-2.989000	1011.929016	-12.621875	21.433125	-0.511875
7.991000	-37.698002	1002.962036	-5.188750	5.604375	0.678125
5.490000	-14.701000	1012.966003	3.902500	12.083750	0.988750
9.333000	0.610000	985.638000	4.143125	4.165000	3.198125
2.989000	-29.158001	1005.158020	4.322500	5.814375	3.994375
11.285000	-20.191000	1015.955017	4.130000	1.933750	-0.848750
-2.440000	-7.381000	1012.966003	4.970000	3.451875	-2.240000
-10.858000	-4.575000	1004.487000	4.729375	0.818125	-2.148125
-5.612000	-2.501000	1003.389038	3.338125	0.704375	-2.826250
-6.100000	7.015000	1018.151001	2.043125	1.010625	-1.513750
1.708000	6.832000	1006.866028	1.736875	-2.248750	0.363125
6.527000	1.891000	1021.750000	1.382500	-7.971250	1.951250
0.122000	-7.076000	1015.528015	3.123750	-4.046875	0.708750
12.810000	-11.346000	1005.158020	3.360000	-2.436875	-1.238125
4.392000	14.030000	1044.076050	-0.879375	2.441250	-0.761250
-0.427000	8.052000	1017.968018	-9.629375	-2.266250	0.870625
-4.758000	-21.167000	1003.632996	-4.952500	7.350000	-0.122500
11.163000	4.880000	897.737000	-2.633750	3.220000	-0.853125
28.304001	1.098000	841.434021	-5.525625	6.216875	3.906875
44.529999	0.183000	750.788025	-12.530000	1.456875	11.025000
36.660999	-27.267000	751.093018	-21.485624	6.606250	17.806250
20.007999	-61.000000	765.367004	-5.635000	-27.230000	7.546875
12.383000	-42.456001	952.697998	21.415625	5.044375	7.721875
29.341000	-50.081001	971.242004	12.950000	-32.103748	1.404375
9.333000	13.176001	1115.140991	16.432501	-14.603750	1.789375
23.058001	55.570999	1126.060059	11.186875	-20.676250	1.951250
33.428001	33.000999	1179.618042	-9.008125	-12.438125	0.704375
69.235001	25.498001	1116.177979	-27.002501	14.708750	-8.833125
77.409004	-15.799000	1087.691040	-33.551876	14.043750	-10.911250
48.799999	-83.082001	1159.427002	-10.683750	49.485626	-16.441250
-90.097000	-102.236000	1345.233032	37.441250	43.141876	-2.130625
-62.281002	-34.526001	1228.296021	44.988125	0.328125	-2.476250
-31.354000	67.466003	1202.737061	31.762501	-11.287500	-5.061875
-3.294000	92.720001	1177.666016	14.958125	-2.975000	-4.200000
-17.141001	42.090000	1292.712036	-2.528750	-3.850000	-0.840000
-23.546000	10.675000	1303.570068	-10.631250	4.633125	-7.148750
19.703001	15.555000	1257.332031	-4.978750	2.546250	-2.563750
-14.274000	36.722000	1279.901978	-5.805625	-20.321875	-4.068750
-9.821000	56.608002	1249.524048	0.735000	-23.799999	0.879375
20.313000	91.134003	1256.234009	12.460000	12.849375	4.235000
20.252001	59.048000	1185.656982	16.379999	12.123125	3.788750
22.753000	93.635002	1140.212036	25.453751	38.215626	0.993125
36.173000	129.563995	994.605042	21.914375	30.511250	-5.985000
34.465000	74.176003	768.294983	-4.860625	42.196877	1.876875
-47.824001	39.528000	646.356018	-8.176875	38.845627	7.511875
-36.295002	-6.222000	655.445007	-21.673750	25.261250	5.740000
-56.486000	21.167000	531.859009	-0.083125	24.565624	-0.481250
-133.223999	35.196999	666.913025	-3.171875	8.360625	-1.907500
-113.642998	6.954000	663.741028	-0.183750	-14.568750	-11.843125
-105.896004	39.894001	789.462036	15.373750	2.213750	-14.021875
-100.833000	88.511002	836.798035	5.376875	-20.291250	-7.656250
-66.673004	53.985001	862.661987	-11.484375	-16.213751	-2.848125
-72.773003	73.016998	909.327026	0.651875	-20.230000	-9.065000
-42.212002	69.295998	1075.613037	-7.599375	-27.046249	-4.760000
-44.042000	64.293999	1080.614990	-18.313749	-24.911249	-1.487500
-42.517002	56.608002	1101.904053	-19.171249	-10.543750	-4.095000
-32.939999	32.574001	1076.284058	-19.416250	-12.127500	-0.805000
-47.580002	21.837999	1062.558960	-15.911875	-7.332500	-1.417500
-27.450001	6.771000	1044.625000	-17.053749	-21.765625	-0.363125
-4.270000	-16.775000	1059.143066	-5.849375	-1.907500	-3.465000
8.662000	-4.636000	1053.958008	-1.903125	-2.213750	0.004375
2.562000	-7.869000	1039.867065	-4.217500	-1.824375	2.926875
-2.684000	-1.952000	1024.983032	-2.712500	1.946875	0.923125
-4.697000	-6.283000	1008.757019	-8.649375	3.675000	3.005625
-0.671000	-28.731001	1019.371033	-10.241875	4.143125	0.647500
-7.747000	-40.138000	1010.708984	-9.528750	6.820625	-2.091250
-4.697000	-25.681000	1005.341003	-5.499375	2.966250	-5.180000
-20.557001	-28.853001	976.549011	-5.433750	5.311250	-1.758750
-17.080000	-32.025002	974.414001	-6.776875	-0.332500	0.013125
-10.370000	-58.316002	982.039001	-4.462500	-7.730625	-0.371875
1.708000	-57.645000	989.114990	1.828750	-0.953750	-3.141250
4.880000	-27.205999	923.845032	4.121250	-2.432500	-2.988125
10.187000	-41.602001	886.879028	13.838125	-6.776875	0.231875
10.614000	-17.263000	813.190979	23.664375	-8.548750	2.800000
4.453000	-12.017000	701.744019	19.040001	24.574375	-0.358750
-18.056000	-2.623000	609.390015	8.925000	21.840000	0.962500
37.027000	4.575000	638.548035	8.141875	49.371876	6.566875
-20.252001	-33.184002	726.937012	0.398125	-22.885626	10.543750
-4.636000	-31.049000	1014.429993	10.578750	-25.462500	9.121875
13.176001	43.615002	1096.474976	-10.311875	-53.843124	-14.078750
6.954000	28.304001	1153.754028	-26.241249	-10.504375	-15.085000
40.931000	32.574001	1165.709961	-40.814377	-62.212502	-22.159374
78.080002	-54.473000	1231.895020	6.663125	6.715625	-12.740000
146.156006	-24.034000	1270.508057	-7.301875	-27.781250	-5.744375
110.166000	35.075001	1502.857056	21.315001	-25.891251	15.500625
-11.895000	11.285000	1593.320068	20.663124	-24.583124	16.200624
54.229000	40.504002	1464.244019	16.318750	-8.067500	-5.586875
83.692001	91.682999	1415.505005	22.325624	-1.518125	-1.102500
113.154999	-9.455000	1277.156982	-7.975625	9.751875	1.295000
117.425003	0.976000	1240.068970	8.522500	27.951876	8.999375
69.174004	37.576000	1266.177002	-3.005625	19.626249	10.788750
78.140999	4.880000	1205.299072	2.992500	13.693750	7.831250
72.834000	67.892998	1223.843018	2.961875	25.466875	5.079375
34.770000	62.646999	1067.988037	5.035625	6.461875	1.382500
75.274002	66.856003	1006.255981	22.946875	27.877501	0.848750
18.971001	104.188004	960.384033	17.500000	40.101250	1.185625
42.090000	-93.452003	879.742004	22.811251	32.724998	-1.295000
-33.916000	170.128998	795.562012	15.312500	35.393749	-5.228125
-23.058001	102.175003	654.591003	-32.103748	14.735000	6.741875
-67.954002	44.103001	736.514038	-18.331249	18.431875	11.781875
-67.709999	40.687000	776.041992	-24.631250	4.169375	-6.326250
-101.808998	26.352001	699.548035	-20.444374	17.578751	-3.473750
-100.467003	16.775000	843.020020	-7.428750	-0.809375	-11.401250
-102.236000	-9.028000	837.468994	-11.812500	-2.782500	-8.868125
-88.816002	32.025002	943.975037	0.638750	-9.695000	-9.795625
-78.568001	30.683001	959.103027	-0.078750	-14.743750	-5.171250
-88.328003	44.042000	972.767029	4.685625	-11.694375	-0.402500
-55.388000	43.310001	997.777039	14.700000	-13.492500	-1.023750
-56.181000	28.059999	1050.786011	13.343750	-18.921875	2.296875
-51.789001	46.726002	1048.041016	-2.060625	-10.950625	2.878750
-32.146999	71.308998	1063.473999	-5.223750	-7.039375	3.692500
-40.015999	63.318001	1062.681030	-9.948750	-4.182500	4.991875
-35.929001	37.698002	1070.794067	-7.581875	-3.924375	2.944375
-42.700001	27.389000	1065.060059	-4.493125	6.811875	-1.859375
-50.630001	32.513000	1051.945068	-7.109375	6.168750	-5.411875
-51.362000	29.707001	1019.309998	-6.015625	6.308750	-6.146875
-49.471001	22.143000	1026.020020	-10.036250	6.317500	-4.357500
-49.410000	18.788000	993.629028	-4.615625	2.340625	-2.358125
-56.119999	7.747000	991.372009	-1.837500	3.263750	1.404375
-56.669003	8.845000	988.382996	2.349375	-1.531250	1.627500
-60.451000	15.006001	979.660034	5.656875	1.400000	1.649375
-50.081001	30.988001	973.437988	2.651250	-1.513750	4.493125
-44.774002	40.199001	936.655029	-0.498750	-0.927500	6.015625
-44.225002	21.777000	908.716980	-2.992500	-2.078125	5.328750
-23.790001	21.899000	868.822998	-0.669375	-6.575625	6.610625
-32.818001	11.224000	800.320007	-1.771875	-8.789375	5.372500
-20.923000	18.177999	742.431030	-6.059375	2.056250	2.935625
-29.829000	18.726999	749.507019	-8.378125	28.498751	2.970625
-16.958000	-14.274000	769.880981	-20.527500	-12.341875	8.277500
1.647000	-27.755001	783.971985	3.434375	-31.937500	7.700000
3.294000	-15.555000	863.455017	17.762501	-9.813125	2.310000
14.091001	-20.069000	941.901001	8.176875	-11.580625	9.598750
-9.821000	5.978000	1137.588989	-23.559376	-4.641875	1.487500
-8.967000	-80.641998	1212.619019	-42.196877	-11.445000	-11.423125
-2.013000	-77.592003	1195.661011	-27.405001	-21.065624	-17.167500
55.449001	-64.476997	1216.523071	7.061250	-26.582500	-8.023750
98.149002	-40.809002	1321.198975	20.422501	-32.099377	8.115625
132.858002	-26.413000	1403.792969	13.785625	-10.425625	11.720625
48.068001	14.518001	1458.631958	-14.993125	-19.766251	5.092500
8.540000	-70.028000	1565.625977	-3.740625	1.312500	5.433750
73.688004	-75.396004	1459.119995	8.973125	-1.365000	-5.551875
85.765999	-42.456001	1317.966064	14.910000	14.555625	-7.441875
54.411999	-17.507000	1277.096069	7.555625	25.913124	1.251250
58.072002	-71.675003	1195.661011	3.784375	24.014376	-0.717500
42.882999	-26.718000	1189.500000	10.570000	20.208124	-6.781250
75.091003	32.818001	1101.537964	-25.059999	5.031250	-10.836875
49.776001	-32.513000	1065.303955	-7.253750	27.164375	2.786875
35.929001	-30.683001	904.996033	-6.965000	21.424376	9.471875
24.644001	-26.047001	871.324036	-2.948750	35.892502	7.367500
-21.289000	-101.320999	838.567017	-17.491249	44.139374	11.418750
-71.248001	-57.157001	706.562988	14.651875	27.461876	2.275000
-86.986000	-16.836000	767.257996	35.301876	17.635626	-3.438750
-78.202003	-13.115000	726.327026	27.098749	-7.039375	0.971250
-83.814003	23.058001	730.169983	28.651875	12.525625	1.351875
-72.223999	16.896999	806.176025	30.038750	-13.440000	-0.363125
-41.114002	38.917999	910.242004	13.041875	0.441875	6.860000
-70.760002	24.827000	937.265015	2.975000	-3.189375	4.414375
-88.328003	56.242001	936.898987	-8.758750	-1.955625	-2.515625
-89.792000	58.681999	957.273010	-18.834375	-0.603750	-3.176250
-91.987999	44.652000	999.790039	-15.172500	-8.290625	-3.504375
