A_X [mg]	A_Y [mg]	A_Z [mg]	G_X [dps]	G_Y [dps]	G_Z [dps]
35.380001	-40.687000	936.898987	-1.308125	-35.406876	10.482500
29.402000	-39.406002	968.863037	13.028750	-33.494999	9.305625
100.284004	-15.921000	1017.723999	23.082500	-7.739375	5.127500
114.375000	-22.814001	1060.667969	16.922501	-13.361250	9.940000
76.494003	0.305000	1021.994019	1.093750	0.765625	11.628750
83.021004	-17.385000	1009.244995	1.491875	-0.577500	8.951250
61.671001	1.342000	1012.966003	0.608125	1.487500	6.400625
79.543999	0.549000	1025.227051	4.051250	3.771250	0.000000
52.459999	26.047001	1021.750000	10.815000	9.948750	-2.616250
95.953003	25.437000	1034.376953	2.301250	6.431250	-3.539375
73.016998	32.513000	1028.826050	-3.548125	7.398125	-0.573125
60.389999	20.862000	1012.112000	-5.468750	9.533125	-1.137500
68.685997	12.505000	1012.356018	-4.869375	2.878750	-0.835625
53.924000	9.211000	1013.027039	-1.715000	4.799375	-1.640625
60.817001	4.453000	1014.369019	-2.708125	0.818125	-1.553125
51.423000	-0.366000	1017.419006	-6.085625	4.816875	-0.765625
51.850002	-20.801001	1136.674072	-7.035000	0.997500	-0.980000
39.955002	-11.712000	1258.674072	-15.566250	-6.116250	-1.513750
70.150002	-47.885002	1285.758057	-13.505625	-1.999375	-4.016250
32.513000	-32.452000	1314.183960	-15.531250	3.298750	-5.000625
37.332001	-27.267000	1224.453003	-9.791250	-0.083125	-3.906875
27.023001	-46.970001	1208.958984	9.410625	4.099375	-5.460000
28.121000	-17.507000	1170.589966	13.483750	15.496250	-8.868125
-33.428001	9.211000	1087.995972	16.821875	27.623751	-11.060000
46.970001	-33.367001	1039.989014	12.376875	-13.597500	-5.328750
42.456001	-19.153999	1069.573975	-15.268750	0.546875	1.767500
60.389999	-54.290001	1045.844971	-17.395000	39.020626	6.759375
-3.294000	-20.740000	946.842041	-16.830626	24.648750	8.295000
-23.790001	-59.292000	1007.293030	-18.283125	24.631250	15.225000
-38.186001	-73.139000	942.450012	-19.569374	20.886250	10.780000
-16.653000	-76.494003	894.687012	14.376250	33.805626	-0.166250
-26.230000	-96.380005	839.908997	15.334375	38.937500	0.586250
-52.338001	-52.216000	792.145996	-0.450625	28.026251	12.499375
-74.237000	-55.510002	788.181030	3.408125	38.202499	23.686251
-94.245003	-40.382000	765.916016	7.083125	24.443125	11.633125
-114.497002	-25.132000	727.729980	16.415001	30.187500	0.756875
-131.516006	-9.455000	664.778015	4.843125	19.123125	0.420000
-142.862000	-20.923000	651.296997	-18.173750	12.123125	6.260625
-119.071999	-24.644001	698.389038	-25.160625	-3.084375	1.238125
-117.242004	-58.438000	800.564026	-20.251875	-16.384375	-2.043125
-135.419998	-81.801003	803.369995	-16.218124	5.451250	-5.919375
-121.024002	-93.085999	815.692017	-12.114375	-17.495625	-11.480000
-104.249001	-107.116005	827.770020	-12.560625	-12.368125	-7.520625
-110.166000	-125.111000	796.721008	4.672500	8.767500	-10.119375
-136.701004	-78.263000	823.195007	16.799999	-29.496250	-17.731874
-136.152008	-20.374001	766.830994	25.528126	0.599375	-8.400000
-102.785004	-39.406002	773.479980	35.695625	-44.738750	-15.115625
-109.007004	-8.235000	932.934021	26.586876	-13.820625	0.188125
-95.526001	-22.264999	1381.650024	-16.988125	-94.303123	-6.601875
-69.662003	12.261000	1642.791016	3.613750	-42.349998	4.598125
-56.973999	-68.990997	1621.929077	-17.023125	20.396250	-2.996875
-65.941002	-63.440002	1512.373047	33.398750	4.138750	-8.890000
-99.307999	-20.434999	1420.323975	35.914375	28.026251	-7.918750
-65.209000	33.123001	1270.203003	23.069374	-2.358125	-1.903125
-62.769001	33.428001	1107.942993	1.286250	25.068750	4.283125
-64.171997	16.104000	985.455017	-7.625625	8.570625	4.134375
-74.176003	4.209000	962.945984	-9.813125	8.500625	5.950000
-74.114998	2.745000	980.330994	-9.747500	-2.817500	1.557500
-54.046001	-16.896999	996.252014	-9.686250	-3.561250	0.940625
-56.913002	-1.159000	991.189026	-1.395625	-1.728125	-0.039375
-53.070000	2.318000	980.208984	2.773750	1.666875	0.030625
-70.820999	7.137000	1011.929016	-4.449375	-5.363750	-2.183125
-68.320000	0.610000	1006.988037	-4.270000	-2.030000	-2.948750
-58.316002	7.442000	1017.236023	-3.972500	-3.189375	-2.835000
-54.229000	-5.063000	1034.926025	-5.070625	-3.718750	-2.113125
-52.338001	3.965000	1022.481995	-2.366875	-0.901250	-1.080625
-54.167999	-16.836000	1026.812988	-7.179375	1.015000	-1.220625
-49.105000	-26.474001	1011.502014	-4.812500	-1.067500	-0.455000
-50.202999	-41.418999	1013.575989	-5.582500	1.719375	-0.756875
-44.957001	-37.942001	1015.893982	-5.486250	-1.946875	-2.021250
-41.174999	-36.966000	1002.596008	-4.169375	2.003750	-2.056250
-52.948002	-34.221001	1009.306030	-3.145625	0.490000	-1.544375
-54.778000	-32.757000	1005.280029	-0.516250	1.330000	-0.962500
-53.985001	-30.439001	1023.824036	-1.032500	-0.323750	-0.669375
-51.056999	-38.491001	1018.333984	0.726250	0.236250	0.170625
-54.656002	-29.585001	1012.600037	1.102500	0.070000	-0.853125
-49.410000	-32.208000	1001.924988	4.103750	1.631875	-0.122500
-49.105000	-33.184002	1022.543030	2.773750	0.223125	-0.813750
-51.545002	-26.047001	1024.617065	1.548750	-0.332500	-1.299375
-42.212002	-34.282001	996.801025	0.494375	-0.035000	-0.258125
-43.675999	-31.598000	983.929993	-2.231250	-0.328125	0.306250
-49.043999	-34.770000	1006.988037	-4.291875	-2.388750	-0.735000
-40.320999	-28.548000	1074.636963	-5.481875	-2.218125	-2.380000
-85.217003	-49.043999	1287.709961	-15.548750	-18.243750	-3.530625
-56.669003	-82.959999	1453.508057	-9.826250	-19.604376	1.330000
-109.312004	-97.783005	1542.385010	-8.133125	9.244375	0.997500
-96.075005	-54.778000	1435.269043	2.375625	17.224375	-0.700000
-98.881004	-48.250999	1303.936035	7.048125	23.095625	3.233125
-83.509003	-64.050003	1168.088989	8.054375	6.759375	-1.605625
-36.966000	-54.595001	1084.640991	14.651875	13.352500	-6.269375
-55.327000	-12.810000	1017.419006	24.456249	24.080000	4.711875
-94.855003	-49.105000	929.579041	15.225000	18.838751	8.242500
-74.481003	-15.616000	986.369995	7.695625	10.688125	9.222500
-74.664001	-2.745000	872.848999	-8.036875	26.219376	12.302500
-105.408005	8.784000	811.544006	-9.668750	42.074375	15.951250
-76.250000	-5.429000	797.635986	0.157500	11.515000	4.081875
-62.098000	-10.065001	779.640991	8.273125	41.593124	-6.510000
-113.033005	2.806000	593.346985	-3.631250	21.385000	3.618125
-122.061005	-6.039000	653.859009	-2.104375	15.820000	6.645625
-130.540009	-25.071001	619.638000	1.242500	27.304375	2.839375
-134.626999	12.078000	563.884033	-6.733125	2.743125	0.704375
-135.602997	7.686000	566.080017	0.293125	-6.002500	-2.467500
-120.902000	2.989000	606.705994	-3.325000	-16.423750	-2.358125
-102.418999	-27.084000	681.614014	-4.773125	-17.985624	7.761250
-119.194000	-65.819000	670.512024	-13.435625	5.131875	14.940625
-184.585999	-91.865997	683.749023	-13.864375	-5.289375	12.919375
-135.175995	-74.298004	868.030029	-12.381250	-6.960625	-19.591249
-166.652008	-16.531000	909.449036	-25.646250	-12.315625	-13.833750
-109.983002	-69.479004	1046.821045	-19.215000	-1.124375	-21.896875
-160.917999	-67.527000	1031.144043	3.985625	-29.496250	-12.700625
-106.932999	-91.134003	1120.386963	6.072500	-57.238125	-25.313749
-112.118004	-19.459000	1260.808960	32.401249	-59.088749	-25.204374
-6.405000	36.844002	1212.984985	31.766874	-50.238125	-25.348749
-35.868000	12.383000	1372.805054	38.176250	-41.155624	-9.327500
-36.050999	19.886000	1451.494995	18.991875	-27.195000	-3.880625
-33.916000	57.218002	1359.690063	-12.901875	7.415625	-1.640625
-9.089000	24.583000	1309.974976	-15.487500	0.936250	5.757500
-38.247002	-30.134001	1243.790039	-15.299375	26.919374	14.630000
-38.917999	-63.989002	1178.458984	0.984375	6.995625	2.091250
-27.632999	-20.069000	1065.670044	1.085000	21.468124	4.716250
-48.799999	-31.049000	1031.327026	-7.875000	8.846250	2.117500
-42.761002	-46.421001	1032.973999	-16.187500	13.260625	-2.069375
-33.062000	-60.024002	1005.950989	-20.737499	1.045625	-1.203125
-15.555000	-48.190002	996.801025	-10.010000	4.528125	7.735000
-27.511000	-52.094002	983.686035	-3.714375	3.115000	12.560625
-42.577999	-43.615002	959.652039	3.583125	2.843750	12.118750
-42.882999	-29.951000	963.739014	2.804375	0.831250	5.543125
-45.506001	-32.085999	997.166992	-1.373750	5.630625	1.920625
-49.348999	-44.529999	1061.400024	-6.978125	-5.446875	0.861875
-41.236000	-59.048000	1013.027039	-5.845000	-7.157500	1.583750
-43.859001	-58.011002	993.629028	9.078125	-2.187500	3.635625
-36.904999	-58.804001	1004.731018	14.083125	-1.802500	1.728125
-32.939999	-40.015999	989.908020	11.515000	-0.905625	-0.498750
-26.840000	-29.646000	1010.648010	8.330000	-3.941875	-1.106875
-42.517002	-29.889999	1047.431030	1.321250	5.398750	-1.933750
-37.698002	-25.559000	1015.772034	-2.515625	0.616875	-3.311875
-45.262001	-39.284000	1011.867981	-4.777500	1.417500	-2.270625
-40.382000	-51.605999	1001.681030	-0.953750	-3.189375	-2.511250
-23.607000	-38.430000	971.059021	-0.966875	-3.408125	-1.378125
-28.609001	-38.674000	980.087036	-0.004375	-3.885000	-0.284375
-20.862000	-36.112000	984.967041	-0.914375	-4.213125	-1.566250
-24.888000	-31.110001	987.651001	-6.689375	-4.900000	-2.121875
-12.932000	-42.272999	1275.144043	-1.754375	-11.335625	-2.581250
-70.760002	-93.573997	1506.700073	-10.876250	-3.399375	-1.413125
-79.726997	-62.890999	1485.045044	-23.288124	-4.615625	-10.364375
-96.380005	-103.151001	1452.714966	-10.701250	-15.763125	-8.220625
-39.040001	-96.319000	1340.474976	8.211875	12.761875	-8.566250
19.032000	-104.309998	1263.797974	2.170000	13.190625	-3.115000
62.464001	-105.957001	1140.029053	2.156875	-23.852501	-6.514375
-24.034000	0.549000	930.494019	17.635626	6.116250	5.779375
40.320999	-31.354000	919.697021	5.858125	45.626877	7.896875
-24.705000	-30.073000	844.666992	-5.215000	31.469376	8.951250
-76.250000	-62.646999	882.121033	-22.640625	47.171249	3.858750
-65.270004	-17.995001	869.005981	-34.404999	48.291248	11.856250
-95.526001	-46.299000	807.945007	-6.457500	47.683125	7.905625
-74.724998	-64.476997	775.614990	2.655625	18.628750	11.322500
-156.343002	-70.333000	624.030029	21.739374	44.362499	6.645625
-193.003998	-63.195999	550.890991	14.245000	45.517502	5.980625
-164.089996	-74.419998	578.280029	3.990000	-8.190000	7.805000
-79.300003	-99.125000	643.122986	-2.445625	-4.418750	-1.916250
-85.278000	-44.774002	735.233032	-0.354375	-20.028749	-10.246250
-67.527000	-26.230000	739.625000	8.067500	-11.886875	-8.583750
-87.291000	-59.963001	854.671021	2.953125	-30.156876	-10.513125
-78.323997	-105.652000	719.617004	-20.142500	-23.751875	-3.762500
-66.306999	-58.376999	844.117981	-2.108750	-18.589375	9.498125
-74.724998	-72.834000	866.444031	5.022500	-60.707500	0.752500
-49.043999	-55.937000	952.332031	25.886875	-63.813751	-3.412500
13.298000	-67.832001	980.026001	4.676875	0.424375	-15.400000
-40.320999	-49.959000	1056.214966	-22.194374	-28.686874	-7.030625
12.566000	-99.247002	1072.928955	-20.133751	-26.801250	-17.325001
2.928000	-50.691002	1124.229980	-14.630000	-0.901250	-12.866875
-8.479000	-123.098000	1184.681030	0.035000	-0.520625	-13.741875
-18.971001	-78.933998	1157.230957	10.434375	-0.910000	-4.558750
7.930000	-62.464001	1055.360962	17.683750	5.394375	3.688125
-32.879002	-73.871002	1212.375000	14.065625	11.611250	10.307500
46.726002	-70.943001	1281.854004	2.423750	-30.738750	9.856875
-8.357000	-84.180000	1341.268066	8.645000	0.927500	6.426875
10.370000	-82.167000	1303.143066	11.515000	-9.375625	3.311875
-18.666000	-59.902000	1251.171021	5.473125	10.189375	0.376250
-3.416000	-46.665001	1125.450073	15.688750	16.686251	2.918125
-14.457000	-2.135000	1033.645020	7.660625	21.463751	9.594375
18.726999	-18.605000	998.630981	8.089375	11.926250	16.117500
-30.500000	-23.485001	997.716003	11.851875	15.378125	19.508125
-35.196999	-14.823000	986.369995	5.783750	6.116250	11.812500
-28.731001	-12.383000	972.218018	5.783750	-0.791875	5.267500
-27.328001	8.967000	993.751038	2.226875	-7.997500	-0.214375
-13.664001	33.306000	980.514038	1.330000	-2.861250	-2.065000
-7.503000	26.840000	1000.278015	-10.565625	-0.826875	0.971250
-23.668001	10.736000	1019.492981	-13.033125	-2.419375	2.012500
-84.180000	-83.692001	1042.978027	-6.606250	3.880625	1.295000
-44.896000	-14.945000	1033.218018	-5.744375	3.574375	-4.598125
-54.290001	-4.941000	1033.401001	-3.023125	9.804375	-3.333750
-43.675999	-18.910000	1032.546997	-0.936250	10.486875	-2.856875
-26.596001	-45.262001	1014.856995	-4.204375	6.173125	-2.730000
-67.649002	1.220000	1018.517029	-5.083750	3.080000	-13.811875
-49.837002	-17.812000	1012.843994	3.316250	3.145625	-4.978750
-41.480000	-26.596001	1001.376038	1.955625	-3.036250	-0.319375
-39.345001	-32.146999	1006.804993	1.124375	-0.035000	-0.201250
-42.456001	-27.267000	992.958008	2.957500	-5.722500	0.625625
-32.085999	-21.410999	973.742981	1.596875	-10.123750	-0.669375
-14.518001	-21.289000	1025.410034	-1.470000	-12.700625	-0.949375
-7.137000	-29.402000	1148.325073	-6.763750	-22.942499	-2.616250
-12.688000	-37.453999	1234.334961	-6.300000	-23.240000	0.476875
-12.017000	-31.110001	1415.993042	-2.366875	-22.146250	0.262500
-24.278000	-44.713001	1488.948975	-2.174375	-35.166248	-6.807500
-20.496000	-41.602001	1491.450073	0.695625	1.124375	-7.301875
17.141001	-25.620001	1378.172974	3.696875	-17.556875	-16.568125
62.341999	-47.214001	1301.374023	1.649375	17.635626	-19.376875
122.854004	-14.213000	1030.167969	20.759375	7.704375	-18.191250
100.772003	18.971001	975.817017	4.138750	-1.474375	-2.051875
99.490997	-15.555000	876.570007	-5.796875	40.989376	7.161875
83.082001	-10.187000	887.733032	-16.069374	23.415001	7.625625
50.691002	28.853001	759.572021	-11.563125	21.984375	11.830000
18.726999	-27.999001	706.867981	-11.672500	12.263125	32.283127
-15.677000	-40.625999	589.320984	-0.756875	20.321875	22.325624
-34.709000	-43.859001	544.364014	3.867500	42.345627	13.501250
-32.818001	-42.151001	603.411987	13.566875	22.531250	7.336875
-42.944000	-39.771999	613.233032	11.033750	12.048750	-1.085000
-58.560001	-27.694000	636.778992	11.270000	-3.696875	-2.581250
-63.135002	-20.434999	753.228027	-2.791250	-6.413750	-1.351875
-26.596001	-21.167000	807.762024	-1.955625	-21.236250	3.206875
-37.514999	-22.082001	885.536987	-9.896250	-5.757500	2.358125
-37.453999	-42.577999	892.002991	-6.492500	-11.431875	-4.020625
-43.798000	-9.455000	926.528992	-9.743125	-6.654375	-7.774375
-24.461000	-46.116001	889.684998	-8.264375	-5.245625	-4.445000
-3.111000	-46.360001	962.153015	7.188125	-16.069374	-12.022500
-58.987000	-11.956000	873.458984	12.298125	0.052500	-30.695000
50.996002	35.624001	853.145996	38.346874	-17.758125	-10.749375
-4.331000	20.984001	1059.143066	32.956875	-26.823126	16.843750
-1.647000	84.850998	1229.394043	15.413125	1.076250	4.921875
-5.978000	46.299000	1285.391968	-21.616875	3.403750	3.163125
-42.028999	20.984001	1396.473022	11.637500	-41.474998	-13.133750
-7.869000	87.230003	1412.760010	8.863750	21.371876	-11.895625
35.136002	98.637001	1328.823975	5.096875	-17.653126	-8.032500
-2.623000	64.355003	1310.890015	-17.955000	16.896250	4.904375
6.710000	16.165001	1222.135010	-21.039375	6.636875	0.971250
-25.742001	-19.215000	1107.394043	-14.748125	20.584375	1.102500
-16.348000	-13.176001	979.049988	-5.600000	15.115625	1.391250
-34.098999	-6.954000	973.010986	-2.450000	18.742500	4.046875
-33.428001	-16.226000	988.627014	-2.638125	11.576250	7.166250
-38.796001	-31.903000	978.622986	-2.336250	-3.666250	5.674375
-35.075001	2.196000	1019.309998	-2.493750	1.824375	3.128125
-43.249001	-22.691999	1016.199036	-7.183750	-3.618125	2.734375
-30.134001	-15.372000	996.069031	-2.069375	-3.788750	2.231250
-40.992001	4.819000	1029.130981	2.205000	-0.533750	2.143750
-36.112000	-7.564000	1019.492981	-0.791875	-1.176875	2.135000
-41.480000	-8.418000	1001.192993	-3.390625	2.257500	0.481250
-38.063999	-21.716000	1018.028992	-2.953125	0.901250	1.098125
-29.951000	-27.511000	1005.280029	-1.203125	1.684375	-0.595000
-31.110001	-34.038002	1002.108032	2.918125	2.235625	0.612500
-36.966000	-24.461000	1006.134033	1.631875	0.214375	-1.067500
-33.184002	-14.579000	1000.460999	1.868125	-0.516250	-1.675625
-36.112000	-4.758000	1007.658997	2.559375	-4.213125	-3.329375
-18.361000	-5.124000	1025.166016	-3.758125	-3.823750	-2.870000
-15.982000	-59.353001	1059.630981	-6.203750	-5.495000	-4.598125
-34.709000	-19.398001	1200.541016	18.606874	4.033750	-13.216875
30.927000	58.681999	1301.191040	3.863125	-16.769375	-0.800625
-52.154999	-127.306999	1727.885986	-79.393127	-29.579374	9.235625
-20.374001	-131.210999	1345.843018	-40.814377	2.183125	-2.463125
-53.131001	-94.062004	1389.702026	-0.516250	-12.009375	-15.181250
10.126000	-118.156998	1320.894043	14.822500	-24.801874	-22.789375
62.464001	-62.830002	1139.785034	19.538750	14.345625	-24.434376
-2.257000	-10.187000	971.486023	17.530624	30.725624	-5.547500
11.468000	23.851000	938.424011	5.075000	27.251875	2.708125
14.579000	-55.875999	831.979004	-2.625000	51.922501	9.782500
0.854000	-38.125000	768.478027	1.553125	23.401875	3.027500
-41.297001	-31.720001	676.794983	-4.427500	31.163124	8.894375
-49.593002	-15.494000	677.770996	-11.274375	14.953750	14.791875
-66.551003	-17.202000	632.630981	-4.086250	43.189999	16.104376
-75.212997	-40.809002	666.729980	8.544375	26.333124	4.165000
-101.687004	-24.156000	641.049011	9.905000	19.228125	3.482500
-67.954002	-39.589001	673.501038	21.905624	-0.188125	2.489375
-88.633003	-33.244999	675.880005	20.588751	-12.617500	2.266250
-87.291000	-20.191000	772.320984	3.902500	-15.518125	0.100625
-68.869003	-19.337000	801.966980	0.000000	-21.249374	-4.694375
-55.449001	-17.263000	841.921997	-9.117500	-16.415001	-8.071875
-61.427002	-44.408001	830.210022	-12.070625	-20.059376	-7.988750
-71.980003	-29.463001	796.294006	-11.046875	-24.399376	-6.610625
-54.961002	-58.681999	838.140015	-17.023125	-14.892500	2.953125
-70.698997	-115.534004	864.369995	19.718124	-26.556250	0.358750
5.124000	-13.237000	857.965027	37.485001	-25.493126	-3.955000
-10.004000	52.399002	1143.750000	21.800625	6.374375	2.953125
-1.830000	92.964005	1177.483032	2.738750	-53.379375	-9.878750
-18.177999	13.725000	1348.588013	14.188125	-22.159374	-10.167500
28.059999	93.147003	1338.156982	13.912500	-61.643749	-25.375000
17.080000	39.528000	1410.869019	12.740000	-10.981250	-4.593750
1.708000	149.694000	1351.211060	25.309376	15.343125	10.101875
-47.763000	90.524002	1317.478027	1.763125	39.983124	26.040001
-4.880000	67.587997	1127.707031	-22.150625	31.968124	26.389999
6.649000	32.939999	1079.456055	-31.793125	25.348749	19.350624
4.026000	20.496000	1034.316040	-23.480625	16.616249	16.104376
-32.208000	-25.437000	1040.416016	-19.713751	23.870001	9.918125
-25.742001	-9.333000	993.080017	-18.414375	2.366875	1.281875
-41.480000	-17.080000	1009.671997	-17.132500	5.691875	2.594375
-51.179001	-23.729000	1025.837036	-13.269375	2.655625	0.984375
-52.704002	-35.929001	1033.401001	-19.346251	-6.431250	-0.966875
-38.917999	-51.667000	1023.213989	-16.257500	-10.858750	-1.680000
-36.844002	-72.528999	1011.014038	-11.375000	10.911250	2.826250
-44.042000	-75.152000	1052.859985	-10.145625	1.793750	5.941250
-47.824001	-87.291000	1036.328979	-11.593750	-0.988750	2.288125
-32.757000	-91.987999	991.311035	-1.802500	0.310625	1.413125
-44.529999	-89.974998	991.616028	6.724375	2.756250	-0.415625
-32.269001	-83.936005	984.479004	11.357500	1.671250	-0.310625
-29.280001	-75.762001	994.544006	6.243125	4.484375	-1.448125
-30.805000	-78.445999	1007.476013	3.762500	-2.975000	-1.106875
-29.158001	-70.393997	1010.587036	3.014375	-0.835625	-0.756875
-32.757000	-53.131001	1008.879028	-3.272500	-2.502500	0.625625
-21.472000	-66.246002	984.723022	-4.160625	-8.911875	-0.371875
-7.869000	-73.078003	1010.221008	-0.175000	-14.293125	-1.041250
-18.788000	-83.814003	1139.968018	-2.856875	-27.405001	-3.228750
1.586000	-103.028999	1183.156006	-4.313750	-17.797501	-5.149375
4.453000	-110.043999	1226.770996	9.095625	-8.106875	-7.179375
-7.076000	-99.674004	1285.270020	19.766251	-15.006250	-6.531875
30.316999	-34.770000	1239.641968	30.323126	13.418125	-3.583125
2.623000	-56.181000	1221.098022	4.956875	-19.687500	-3.473750
35.319000	-30.195000	1172.176025	9.371250	-11.375000	-4.523750
36.904999	-50.935001	1122.521973	9.305625	-5.700625	-9.261875
63.379002	18.483000	1129.354004	8.360625	-4.208750	-6.041875
45.688999	-12.017000	1063.291016	2.900625	10.491250	-1.194375
76.311005	11.773000	1049.993042	-10.176250	-2.056250	-3.570000
17.019001	41.541000	941.962036	-13.658750	6.978125	-3.430000
51.423000	7.808000	952.270996	-14.446250	25.068750	-3.163125
44.896000	-0.610000	876.082031	-17.395000	21.398125	1.439375
-15.982000	14.945000	801.418030	-15.076250	15.557500	3.513125
5.490000	-17.446001	817.216980	-0.826875	23.778126	-1.465625
-16.409000	-28.853001	799.770996	13.418125	28.126875	-1.316875
33.733002	-38.003002	856.379028	9.524375	24.823750	5.455625
8.235000	-35.990002	871.140991	0.840000	26.980625	10.688125
-11.102000	-42.944000	865.528992	0.682500	22.465626	5.862500
-7.076000	-52.216000	877.668030	0.367500	25.991875	0.100625
-71.918999	-21.716000	791.596985	-0.459375	9.086875	-1.159375
-65.026001	-45.139999	831.429993	0.236250	-1.216250	-7.367500
-81.129997	-48.739002	855.647034	-14.783125	-11.379375	-9.086875
-66.917000	-58.987000	908.533997	-22.583750	-19.985001	-10.460625
-76.615997	-85.278000	903.166016	-21.625626	-11.370625	-6.339375
-29.829000	-100.345001	838.445007	-16.139376	-17.377501	-4.506250
-41.174999	-99.552002	890.356018	-9.283750	-6.663125	0.052500
-21.594000	-55.083000	738.770996	-12.600000	-2.126250	-8.211875
-65.514000	-54.839001	777.078979	-15.977500	7.853125	-0.463750
-10.553000	-125.781998	829.721985	19.333124	-4.891250	-8.242500
-55.205002	-74.786003	862.661987	35.161877	-21.682501	-5.748750
30.256001	-50.325001	1047.552979	55.396252	-5.136250	2.086875
-57.340000	32.757000	1047.308960	42.319374	-34.264999	-2.524375
7.015000	67.649002	1186.450073	51.629375	19.753124	-3.206875
-34.952999	55.693001	1231.773071	8.793750	-2.331875	5.604375
4.026000	117.303001	1262.822021	-15.395625	-10.154375	1.391250
-81.556999	-5.124000	1415.078003	-28.700001	-15.855000	1.701875
-19.032000	-26.108000	1336.754028	-11.795000	-13.632500	-0.371875
-39.466999	-5.856000	1318.576050	-15.951250	6.085625	7.288750
-43.615002	-40.564999	1214.327026	-11.497500	-5.893125	3.758125
-6.344000	-33.306000	1050.053955	-11.725000	8.802500	7.210000
-24.034000	-43.980999	1006.866028	-10.762500	-5.586875	5.455625
2.928000	-20.679001	983.380981	-3.045000	0.651875	11.655000
5.551000	-52.094002	1030.656006	-8.181250	-5.696250	11.659375
7.015000	-46.542999	1000.033997	-5.696250	-1.203125	8.763125
9.455000	-56.181000	1022.299011	-2.130625	-2.489375	4.851875
1.098000	-43.431999	1008.879028	-0.923125	-2.296875	0.074375
13.786000	-49.653999	1008.574036	3.145625	-2.603125	-2.222500
14.335000	-48.922001	1002.901001	5.363750	0.945000	-1.557500
17.385000	-38.186001	1024.433960	7.660625	-1.176875	-1.964375
26.840000	-44.164001	1011.502014	0.096250	2.485000	-1.946875
24.521999	-47.458000	1009.244995	-3.027500	-1.907500	-2.957500
33.611000	-41.541000	1001.376038	-3.141250	-1.478750	-3.220000
21.655001	-42.212002	986.004028	-3.263750	-1.964375	-3.749375
36.600002	-43.371002	1022.665039	-4.738125	-7.498750	-3.675000
-15.921000	-87.656998	1259.161987	-12.648125	-13.615000	-3.605000
12.749001	-119.376999	1408.428955	-13.116250	-11.558750	-0.004375
28.304001	-114.680000	1475.529053	-14.271250	-2.734375	-1.540000
-31.842001	-144.326004	1450.640991	-4.935000	14.918750	-2.086875
9.638000	-118.218002	1353.589966	4.230625	12.464375	-4.856250
35.319000	-89.792000	1192.550049	11.318125	24.259375	-3.924375
48.068001	-59.230999	1099.586060	17.189375	15.509375	-4.720625
-6.222000	-37.637001	971.729980	6.645625	32.418751	0.468125
-18.483000	14.701000	925.369995	9.213750	22.238125	-2.362500
-13.176001	7.137000	866.505005	-3.250625	26.958750	2.953125
19.520000	-15.189000	843.874023	11.996250	22.120001	1.833125
-53.497002	-60.633999	791.718994	-1.903125	25.396875	10.723125
-87.413002	-18.422001	759.205994	-6.195000	5.481875	5.783750
-100.710999	-54.595001	761.402039	-4.042500	22.303749	-0.380625
-47.458000	-24.766001	784.277039	2.279375	12.635000	-3.045000
-61.427002	-34.647999	759.755005	6.146875	20.995625	7.231875
-70.698997	-34.098999	745.176025	9.458750	12.293750	7.148750
-53.070000	-14.091001	692.898987	15.137500	10.880625	6.107500
-56.913002	-18.056000	655.078979	17.893749	2.721250	3.946250
-94.976997	-17.019001	719.067993	2.668750	-7.105000	3.801875
-68.014999	-13.481000	769.453979	-21.599375	-4.943750	2.835000
-110.227005	-25.132000	726.997986	-36.526875	4.528125	8.566250
-149.084000	-42.882999	761.645996	-18.090626	-11.799375	5.433750
-62.464001	-92.415001	792.207031	-5.035625	2.528750	-7.691250
-117.303001	-78.933998	907.436035	-9.143750	-0.533750	-9.913750
-102.175003	-59.963001	922.869019	-16.891874	-21.599375	-11.781875
-150.669998	-110.653999	1005.585022	-30.362499	27.934376	-4.077500
-123.647003	-88.266998	1030.961060	-3.609375	-60.453751	-11.318125
-107.237999	-149.022995	1214.204956	5.591250	-12.306875	-3.360000
-163.602005	-162.931000	1291.187012	41.348125	-42.109375	-18.930626
-39.771999	-35.380001	1286.978027	31.854376	-62.278126	-23.121876
-42.334000	-67.649002	1482.848999	2.550625	-48.973751	-12.893125
11.590000	-71.980003	1415.932007	-5.276250	-6.453125	-6.492500
-4.941000	-74.359001	1279.414062	-12.696250	-2.410625	-4.361875
-6.405000	-95.098999	1167.784058	8.955625	15.837500	0.756875
-6.710000	-44.591000	1076.040039	20.636875	19.175625	4.278750
-17.202000	-65.879997	1057.557007	12.827500	15.330000	4.720625
-13.054000	-58.987000	1027.605957	10.045000	1.500625	2.021250
-8.113000	-52.643002	1004.059998	1.198750	6.448750	-1.386875
12.078000	-41.053001	996.862000	-0.481250	1.697500	-3.631250
1.159000	-27.084000	975.450989	-2.843750	-0.892500	-1.662500
1.403000	-31.659000	983.747009	-5.757500	-6.671875	-1.666875
0.000000	-41.358002	1015.955017	-9.660000	-5.446875	0.275625
2.196000	-37.698002	1009.428040	-6.383125	-0.612500	3.294375
-9.943000	-47.396999	1021.994019	-1.736875	-2.813125	2.170000
-0.732000	-44.408001	1008.635010	0.888125	-1.321250	2.730000
2.013000	-44.285999	988.260986	1.706250	0.266875	0.341250
0.244000	-38.247002	994.848999	7.231875	-1.894375	-2.633750
5.124000	-35.563000	1003.937988	6.081250	-2.520000	-2.318750
10.736000	-44.285999	1080.126953	7.096250	-4.449375	-0.984375
-16.226000	-45.811001	1308.999023	3.001250	-18.375000	2.948750
12.871000	-76.982002	1401.109009	7.861875	-17.745001	9.275000
-38.307999	-7.137000	1388.482056	29.811251	-1.067500	4.431875
-32.513000	48.739002	1326.078979	17.333750	5.748750	7.371875
36.234001	15.616000	1291.919067	-5.385625	-11.488750	4.746875
43.005001	12.566000	1284.050049	-14.691250	0.953750	-0.984375
53.741001	47.091999	1159.915039	-27.903749	13.037500	-1.925000
35.563000	-32.635002	1126.243042	-20.129375	44.541874	-5.315625
36.660999	-26.779001	971.546997	-33.040001	48.641251	1.754375
1.281000	-45.139999	940.864014	-9.848125	40.810001	-4.873750
-4.331000	-57.340000	817.400024	-7.214375	24.311874	-9.861250
-99.735001	-37.453999	656.238037	18.318125	37.226875	-13.601875
-58.804001	-38.491001	688.385010	20.352501	41.391876	-8.758750
-64.538002	-15.982000	653.065979	23.069374	42.879375	-2.913750
-97.599998	-33.244999	724.314026	10.250625	34.925625	12.079375
-110.105003	-33.672001	697.108032	6.947500	17.797501	6.588750
-77.592003	-14.396000	713.028992	3.101875	3.727500	6.164375
-62.037003	-22.814001	669.231018	7.568750	4.436250	0.126875
-109.495003	-4.392000	707.112000	-0.459375	-12.551875	6.278125
-123.708000	5.795000	725.900024	-8.133125	-7.420000	15.106875
-134.261002	7.137000	761.645996	-17.876249	5.088125	20.680626
-103.761002	-46.726002	747.921021	-30.261875	-14.516250	12.569375
-157.501999	-69.174004	793.915039	-16.891874	-35.113750	4.646250
-53.741001	-63.440002	935.069031	-8.461250	-39.256874	-5.468750
-95.831001	-63.195999	1017.358032	-20.886250	-33.333126	0.170625
-63.257000	-102.541000	936.471985	-22.680000	-19.823126	-5.656875
-117.973999	-82.654999	1053.348022	-5.368125	-4.068750	-5.735625
-106.139999	-58.316002	981.002014	5.425000	-3.062500	-5.477500
-145.485001	-56.119999	1235.982056	-2.909375	-31.753750	-7.126875
-98.392998	-83.752998	1191.025024	-1.990625	-40.770626	-2.546250
-72.041000	-123.585999	1331.508057	6.396250	-18.567499	4.239375
-14.640000	-150.425995	1429.962036	4.401250	-41.348125	-2.318750
-20.618000	-146.339005	1369.572021	-6.190625	-18.624374	-8.491875
-5.795000	-119.376999	1328.031006	3.946250	-19.350624	-6.466250
5.978000	-113.154999	1247.023071	-2.235625	0.398125	-9.550625
14.884000	-88.023003	1065.303955	-2.839375	-1.767500	-6.531875
35.441002	-65.270004	982.283020	0.179375	9.983750	0.700000
24.644001	-75.884003	976.549011	9.353750	4.493125	8.268750
22.204000	-85.827003	989.603027	21.371876	5.368125	10.307500
22.814001	-68.014999	1008.940002	30.336250	3.832500	11.348750
37.453999	-55.815002	1004.914001	25.930626	-0.988750	8.890000
10.736000	-28.670000	1004.853027	20.260626	1.776250	5.748750
31.476000	-0.122000	1009.244995	9.611875	1.645000	6.715625
20.434999	-4.392000	1020.408020	4.112500	0.595000	6.558125
18.056000	1.647000	1010.038025	2.345000	3.241875	2.121875
19.580999	13.054000	998.692017	2.257500	-0.643125	-0.468125
20.618000	19.764000	1008.330017	5.324375	-3.434375	-0.774375
24.461000	11.712000	1015.040039	1.750000	1.601250	0.931875
24.521999	16.469999	986.674988	-1.115625	-2.331875	0.284375
26.474001	-3.477000	999.119019	-4.392500	-3.071250	0.630000
41.297001	2.745000	1045.479004	-8.281875	-4.130000	-0.673750
-4.880000	-9.699000	1307.291016	-13.081250	-5.805625	0.389375
-32.208000	-56.303001	1491.693970	-8.728125	-3.473750	-0.013125
-35.257999	-11.590000	1441.003052	-0.170625	5.761875	-5.538750
-42.944000	-65.209000	1340.841064	5.040000	-32.514999	-17.395000
-13.054000	33.428001	1201.333984	12.048750	-4.663750	-11.410000
62.281002	-19.459000	1144.055054	-10.521875	24.416876	-8.071875
62.037003	4.697000	1098.122070	-8.645000	4.895625	-7.358750
129.686005	6.405000	1085.800049	-9.935625	9.708125	4.095000
92.659004	-46.604000	951.539001	-0.844375	8.741250	4.449375
56.791000	-10.187000	925.187012	5.271875	45.779999	-1.557500
-6.466000	15.921000	920.551025	-11.401250	32.016251	14.616875
-15.616000	24.766001	780.312012	-7.100625	18.799376	16.174376
-68.502998	-20.252001	859.124023	-2.760625	19.096874	9.738750
-16.775000	-32.513000	868.395996	4.764375	9.970625	4.646250
-5.551000	-40.077000	843.690979	8.640625	40.005001	-3.972500
-23.790001	12.322001	736.697021	8.115625	29.443750	1.465625
-64.843002	24.156000	608.536011	4.256875	27.807501	5.250000
-87.718002	-12.749001	653.432007	6.076875	20.164375	3.128125
-108.580002	-78.873001	600.057007	4.003125	10.469375	-6.356875
-92.292999	-54.839001	628.666016	-12.438125	-9.782500	-11.370625
-94.183998	-28.121000	691.984009	-15.855000	-31.430000	-7.188125
-51.972000	-56.730000	711.931030	-6.562500	-26.206249	5.954375
-52.826000	2.684000	852.109009	4.904375	-41.943127	4.681250
-46.299000	-41.236000	913.353027	13.728750	-30.073750	1.461250
0.671000	5.795000	930.859985	3.845625	-22.211876	-2.165625
4.575000	-74.359001	935.496033	5.381250	-21.214375	-22.303749
-0.061000	101.808998	1128.682983	20.133751	-21.993126	-29.014999
38.552002	-25.375999	1237.994995	-8.225000	-50.369373	-12.061875
26.352001	48.129002	1150.765015	-18.974375	-1.596875	-1.001875
46.848000	-84.973000	1311.865967	18.309376	-24.285625	-10.561250
42.212002	38.857002	1297.652954	20.361250	11.134375	-10.491250
-13.298000	5.429000	1232.932007	3.745000	-4.226250	6.063750
45.688999	41.968002	1155.706055	-5.271875	22.566250	12.761875
24.948999	-1.159000	1229.881958	-9.716875	-29.395624	9.095625
40.443001	15.006001	1202.614990	-22.316875	-20.549376	3.031875
60.633999	-51.362000	1193.708984	-37.463123	-0.087500	4.025000
53.131001	-80.398003	1098.061035	-35.822498	9.170000	-2.248750
46.786999	-96.319000	1043.893066	-19.871250	10.469375	-2.226875
47.275002	-94.793999	1001.192993	-5.661250	9.016875	-2.200625
63.379002	-90.341003	990.884033	4.073125	6.286875	1.828750
66.246002	-83.997002	974.109009	6.028750	-7.936250	-1.321250
60.329002	-64.843002	989.419983	8.579375	-2.025625	-3.430000
57.706001	-71.125999	1012.416992	7.428750	-4.138750	-5.696250
54.351002	-74.724998	1018.822021	-1.356250	-0.971250	-3.806250
54.411999	-91.256004	1030.838989	-8.128750	-0.791875	-4.081875
59.048000	-74.847000	1025.898071	-9.786875	0.866250	-4.558750
64.233002	-88.511002	1015.833008	-6.978125	5.411875	-2.581250
53.375000	-89.914001	1013.148987	0.586250	4.274375	-0.835625
55.875999	-95.160004	1007.963989	1.964375	5.341875	2.130625
67.222000	-96.746002	1001.559021	-0.192500	2.703750	3.451875
69.845001	-100.528000	983.502991	-0.262500	0.389375	2.432500
63.318001	-103.516998	971.729980	-0.122500	1.421875	-0.109375
63.074001	-90.584999	966.606018	2.406250	-5.556250	-1.120000
66.429001	-83.752998	986.919006	5.836250	-6.059375	-1.942500
67.954002	-67.709999	1017.601990	5.919375	-7.301875	-0.144375
70.820999	-66.001999	1040.721069	2.406250	-8.732500	1.653750
82.532997	-69.417999	1114.165039	-3.937500	-10.101875	2.852500
122.000000	-135.115005	1469.612061	-7.813750	-10.290000	4.410000
144.692001	-259.127991	1888.316040	-34.921249	-27.461876	22.500626
46.482002	-181.292007	1422.947021	-37.060623	15.754375	22.378124
2.318000	-116.815002	1236.348022	-1.015000	1.745625	13.317500
29.402000	-158.966003	1001.437012	28.586250	42.691250	1.942500
112.972000	-99.369003	954.588989	46.466873	13.055000	-11.112500
134.871002	-93.573997	1004.548035	16.038750	6.461875	10.963750
74.969002	-92.475998	923.052002	-5.302500	9.642500	20.133751
43.615002	-29.707001	797.940979	4.011875	23.651251	15.960000
-36.295002	-11.102000	808.677002	16.051874	16.165625	12.766250
-25.254000	-41.602001	746.335022	26.298124	27.133751	0.700000
-35.136002	7.198000	772.687012	37.966251	61.573750	-12.149375
17.446001	-25.193001	849.608032	27.133751	34.208126	-2.270625
-24.095001	-17.446001	813.312988	11.221875	54.241249	5.831875
-43.066002	2.257000	798.124023	-0.363125	15.036875	3.863125
-24.217001	-18.666000	766.465027	-8.098125	21.901251	-0.494375
-56.547001	8.601000	649.893982	-11.318125	2.253125	-7.091875
-103.395004	7.259000	621.406982	-16.441250	9.524375	-1.098125
-97.051003	23.668001	692.471985	-11.773125	3.049375	-1.968750
-95.709000	-32.452000	712.479980	-8.229375	-11.064375	1.745625
-101.748001	-34.770000	769.820007	-8.706250	-14.735000	-3.679375
-119.621002	-69.540001	754.143005	2.550625	2.498125	-2.318750
-60.268002	-94.062004	795.867004	7.651875	-22.719376	-7.857500
-25.437000	-22.570000	921.954041	24.053749	-26.941250	-7.861875
34.647999	3.477000	1027.605957	-5.621875	-26.705000	-2.988125
-100.040001	-7.198000	1086.714966	-2.590000	-23.432501	-3.867500
-14.396000	65.453003	1030.167969	6.978125	-5.324375	6.501250
-111.203003	-36.966000	1183.704956	-10.972500	-26.827499	5.394375
-57.889000	11.163000	1404.769043	-30.130625	-28.105000	-2.533125
-97.112000	-108.823997	1248.426025	-31.233126	-22.728125	-12.805625
-29.889999	-60.695000	1339.803955	9.436875	3.841250	-6.068125
-81.313004	-63.562000	1303.753052	3.491250	7.971250	-0.647500
-9.455000	-66.978004	1223.904053	-0.975625	-4.488750	-3.416875
-20.801001	-50.813000	1139.662964	-7.035000	4.366250	-5.766250
-24.948999	-78.750999	1125.510986	-15.946875	5.079375	-7.516250
-17.812000	-123.098000	1121.973022	-15.435000	-19.530001	-10.893750
33.793999	-60.695000	1014.064026	0.078750	-26.740000	-6.330625
22.997000	-48.922001	972.767029	10.622500	-3.093125	2.358125
32.695999	-47.945999	989.114990	10.845625	-0.249375	8.133125
36.050999	-35.014000	1000.400024	5.985000	-4.221875	10.727500
50.447002	-62.830002	1017.114014	3.237500	-6.566875	7.853125
57.096001	-45.811001	1023.945984	8.645000	-1.260000	5.998125
-44.713001	-14.762000	1061.338989	2.436875	-1.321250	18.703125
59.902000	-41.480000	991.067017	-6.483750	16.738750	2.843750
30.988001	-45.993999	994.117004	-9.301250	-1.242500	-3.723125
17.080000	-52.826000	1012.843994	-7.367500	-3.075625	-6.041875
46.299000	-48.799999	1012.966003	1.365000	2.135000	-2.498125
39.161999	-42.761002	1034.620972	4.138750	3.093125	-2.585625
25.010000	-51.972000	1018.700012	6.090000	7.866250	-2.528750
16.592001	-60.878002	1017.968018	5.451250	8.465625	-0.945000
21.533001	-41.907001	1026.324951	3.010000	-1.618750	-1.330000
30.622000	-38.125000	1013.759033	0.245000	3.036250	3.316250
29.829000	-54.473000	1019.981018	5.018125	1.500625	5.954375
25.620001	-52.704002	992.408997	6.448750	2.953125	5.906250
21.045000	-32.146999	997.044983	5.127500	-2.401875	3.036250
21.594000	-32.330002	1008.208008	1.596875	-0.805000	1.649375
28.548000	-30.439001	1055.056030	-1.684375	-7.861875	1.400000
7.320000	-59.230999	1141.737061	-9.060625	-11.125625	1.802500
-4.270000	-62.037003	1299.056030	-6.820625	-22.662500	0.595000
-11.346000	-68.930000	1429.839966	-5.363750	-17.219999	1.159375
-3.111000	-56.303001	1367.864014	14.713125	17.355625	0.735000
22.691999	-37.027000	1329.983032	12.783750	1.360625	-13.720000
26.230000	24.278000	1306.558960	26.232500	33.035625	-9.318750
39.711002	28.121000	1181.570068	27.299999	32.668125	-9.323125
66.429001	63.928001	1112.395996	29.063126	25.580626	-5.643750
35.196999	36.355999	884.195007	16.555000	25.147499	1.732500
30.073000	44.591000	888.221008	7.673750	17.683750	-3.653125
-9.333000	55.693001	856.440002	10.810625	24.285625	-4.077500
-6.649000	51.667000	812.703003	3.998750	31.596251	-0.748125
16.042999	49.227001	801.174011	-11.585000	19.320000	6.234375
-26.169001	51.972000	815.630981	-9.515625	29.601250	6.597500
-62.403000	21.533001	753.593994	-4.676875	9.393125	1.001875
-98.697998	33.855000	775.919983	3.736250	12.070625	-5.726875
-100.894005	32.452000	728.096008	10.469375	8.190000	-1.732500
-65.819000	36.295002	726.997986	9.476250	-2.384375	-1.093750
-73.871002	39.771999	687.470032	-3.451875	-10.801875	9.301250
-46.116001	34.282001	721.447021	-7.437500	-8.343125	4.095000
-67.587997	8.296000	770.247009	-21.196875	-12.066250	5.744375
-40.077000	-12.871000	751.215027	-21.345625	-17.552500	4.628750
-19.337000	6.954000	817.827026	-24.959375	-16.218124	-6.190625
-62.952000	26.535000	892.734985	-16.865625	-15.290625	-2.957500
-28.182001	-67.649002	847.473022	-3.373125	-25.051250	-5.678750
-57.157001	2.501000	915.122009	-12.845000	-16.358126	-2.708125
25.559000	-43.431999	1092.265991	-2.375625	-47.276249	-7.271250
-36.234001	6.832000	1063.229980	24.482500	-16.918125	-17.618126
-18.177999	63.440002	1069.635010	11.213125	-34.746250	-11.851875
15.738000	61.549000	1032.364014	45.578751	7.861875	-15.911875
79.422005	142.190994	1108.858032	35.533749	-38.863125	-8.041250
76.799004	64.660004	1177.117065	-17.495625	-43.872501	-12.687500
159.210007	113.764999	1181.265015	-30.502501	-17.521875	-9.524375
65.941002	43.675999	1279.047974	-23.305626	-12.586875	-10.600625
131.576996	88.511002	1297.592041	-21.056875	1.491875	-0.008750
81.618004	28.609001	1350.723022	-25.637501	14.336875	2.808750
82.289001	0.915000	1196.026978	-5.083750	36.365002	15.728125
38.796001	-10.248000	1084.031006	-4.755625	28.153126	20.759375
54.473000	-24.521999	981.794983	0.376250	13.356875	34.103127
27.755001	-87.656998	1008.330017	-1.509375	-11.239375	25.956875
27.145000	-25.375999	1010.403992	1.334375	12.700625	13.483750
13.420000	-31.110001	1010.403992	-7.665000	5.836250	6.326250
16.042999	-24.521999	987.590027	-7.262500	6.575625	0.892500
25.498001	-41.053001	994.971008	-2.957500	3.701250	-0.665000
16.104000	-51.362000	1010.038025	0.118125	0.931875	-7.385000
22.387001	-15.555000	989.541992	-1.938125	-3.885000	-9.655625
36.173000	-33.733002	1014.491028	-1.841875	3.290000	-7.695625
39.466999	-36.234001	1021.872009	-2.178750	0.109375	-4.554375
35.685001	-29.341000	1021.079041	-4.423125	0.288750	-1.347500
31.110001	-18.483000	1011.441040	3.215625	0.428750	2.191875
30.561001	-45.750000	1016.504028	2.747500	5.355000	4.519375
28.975000	-49.837002	1004.121033	3.622500	0.883750	3.355625
30.073000	-43.005001	1017.601990	4.186875	0.446250	0.144375
30.439001	-30.073000	1019.554016	1.741250	-0.958125	-1.710625
25.254000	-17.202000	1011.989990	-0.599375	-1.513750	-1.487500
36.050999	-18.910000	991.372009	-2.616250	0.525000	-1.618750
27.816000	-22.814001	1000.643982	-6.308750	-3.255000	-1.723750
36.234001	-29.158001	998.509033	-7.008750	-0.533750	-0.678125
42.821999	-24.766001	1038.525024	-3.259375	-2.629375	-0.201250
42.334000	-45.688999	1095.376953	2.983750	-1.736875	2.734375
36.904999	-51.179001	1143.811035	8.155000	-1.863750	0.809375
40.320999	-38.063999	1233.968994	9.231250	-4.125625	1.032500
22.387001	-56.364002	1389.823975	-3.648750	-11.751250	-4.825625
51.605999	-43.126999	1303.875000	-4.204375	-11.375000	-8.001875
38.735001	-22.631001	1252.025024	3.211250	-16.393126	-7.634375
28.731001	-16.409000	1213.838989	16.826250	-11.624375	-1.404375
52.764999	-8.601000	1115.506958	30.782499	-3.631250	2.270625
60.633999	43.005001	1064.145020	24.718750	-0.476875	0.564375
73.566002	51.423000	1069.025024	15.815625	21.288750	1.701875
30.256001	35.624001	1029.863037	16.686251	27.886250	0.258125
67.954002	42.944000	872.361023	18.641874	40.490623	-5.543125
38.003002	39.528000	970.265991	-1.614375	20.833750	-6.308750
1.342000	68.320000	877.546021	-15.583750	33.123123	-1.850625
5.673000	30.134001	867.176025	-21.013124	31.447500	9.883125
-9.028000	22.997000	796.843018	-5.582500	35.157501	1.627500
-22.936001	39.771999	739.015015	2.069375	35.017502	-4.191250
-13.725000	9.699000	759.632996	4.965625	22.955626	-11.445000
-41.480000	38.307999	693.936035	10.408125	22.478750	-9.703750
-36.173000	34.587002	671.304993	-2.310000	9.043125	0.809375
-62.159000	25.986000	684.786011	-12.267500	-1.369375	4.956875
-81.862000	24.644001	719.129028	-22.741249	-15.277500	12.368125
-71.613998	-21.106001	804.101990	-21.183750	-21.441875	5.560625
-59.414001	-2.074000	810.567993	-17.294374	-35.188126	3.815000
-40.260002	-45.018002	825.085999	-37.161251	-28.398125	-4.589375
-70.760002	-28.975000	807.518005	-39.759998	-39.628750	-2.878750
31.537001	-47.519001	915.731995	-33.254375	-33.823124	-0.490000
-11.346000	-71.065002	926.590027	3.010000	-17.233126	-8.623125
82.594002	-61.183002	1049.932007	14.993125	-14.809375	-1.846250
95.038002	-45.932999	1202.310059	-12.582500	7.603750	2.940000
-0.427000	-136.212997	1092.021973	-30.428125	-41.623749	-9.738750
43.615002	-116.448997	1284.294067	-4.414375	-10.657500	-18.746876
30.195000	-138.348007	1222.073975	16.454374	6.676250	-23.616249
23.485001	-45.567001	1191.329956	1.518125	-0.984375	-13.308750
52.764999	-70.333000	1222.196045	5.031250	3.718750	5.394375
49.105000	-94.550003	1228.174072	8.951250	8.303750	13.956250
27.572001	-113.338005	1233.541992	11.628750	7.971250	15.955625
31.903000	-106.627998	1156.316040	16.218124	2.283750	8.098125
12.322001	-83.204002	1069.146973	11.843125	10.320625	-0.328125
32.635002	-47.519001	1023.945984	-1.404375	6.116250	-5.455625
21.472000	-54.167999	996.007996	-8.286250	4.375000	-5.048750
14.762000	-55.083000	989.664001	-7.918750	0.354375	-5.254375
23.058001	-70.760002	986.247986	0.713125	-4.200000	-6.387500
23.363001	-56.059002	991.494019	11.733750	-4.694375	-8.190000
29.463001	-37.514999	1016.138000	7.971250	-5.446875	-9.594375
37.820000	-32.025002	1022.543030	2.730000	-4.908750	-8.793750
41.174999	-28.609001	1017.358032	-3.206875	-1.505000	-4.633125
45.506001	-35.746002	1042.307007	-7.700000	1.583750	-0.231875
40.260002	-56.486000	1016.260010	-9.340625	-0.975625	2.423750
35.136002	-81.008003	990.700989	-6.750625	2.380000	0.910000
37.637001	-61.976002	994.299988	-0.315000	0.402500	-1.203125
30.866001	-70.515999	1029.497070	-1.745625	1.894375	-1.815625
53.618999	-51.423000	997.350037	-2.375625	3.097500	-3.145625
38.125000	-49.410000	1002.230042	-0.840000	-3.132500	-2.270625
37.576000	-47.153000	993.263000	-1.115625	0.590625	-1.225000
47.580002	-60.084999	982.343994	1.605625	-1.793750	0.078750
45.811001	-60.695000	971.729980	7.008750	-0.678125	-1.015000
43.737000	-53.192001	1031.327026	3.679375	-13.190625	1.093750
57.462002	-48.983002	1003.694031	-3.657500	-4.812500	1.102500
46.909000	-59.841000	1059.570068	-3.193750	-4.668125	0.231875
64.416000	-66.063004	1157.047974	-3.775625	-2.485000	-0.708750
31.720001	-72.834000	1324.553955	11.436250	-6.593125	2.121875
-9.760000	-84.729004	1445.943970	13.391875	-5.582500	5.880000
-13.542000	-74.419998	1428.131958	-4.077500	6.339375	2.375625
6.771000	-26.718000	1318.270996	-10.561250	49.153126	2.878750
8.845000	-88.938004	1187.853027	-32.528126	9.292500	-4.375000
38.857002	-65.270004	1200.296997	-18.926250	23.865625	-0.704375
24.461000	-99.795998	1047.065063	-10.360000	29.461250	2.594375
19.642000	-73.931999	1017.663025	1.841875	39.318127	4.694375
-51.789001	-40.015999	947.390991	8.303750	62.352501	11.930625
-45.323002	-46.848000	990.700989	12.985000	39.138748	8.601250
-84.973000	-82.532997	892.064026	12.280625	61.206249	9.021250
-119.071999	-60.938999	820.937988	15.273125	32.112499	7.459375
-136.762009	-65.514000	830.515015	13.580000	40.171249	4.366250
-165.249008	-28.670000	725.595032	10.517500	25.773125	-5.433750
-174.460007	-10.065001	669.901978	2.887500	35.853127	-10.504375
-167.505997	-25.071001	601.947998	-4.672500	1.439375	5.166875
-145.423996	-50.447002	584.746033	1.898750	-32.917500	11.160625
-113.216003	-50.447002	564.677002	4.033750	39.116875	9.975000
-152.378006	-23.058001	557.539978	7.428750	-8.640625	4.961250
-141.337006	-27.450001	628.117004	15.229375	-18.375000	-2.340625
-114.497002	-39.284000	740.539978	3.136875	-41.409374	-3.023125
-167.139999	-29.768000	775.737000	-1.229375	-24.709999	-4.598125
-65.879997	-45.445000	828.380005	-5.565000	-12.648125	-18.388124
-168.604004	-19.947001	971.059021	-7.560000	-7.988750	-28.879375
-95.221001	19.459000	1034.133057	-27.658751	-43.233749	-16.979376
-194.589996	-61.792999	1056.824951	-4.602500	-30.926874	-17.801874
-93.390999	-41.907001	1202.005005	10.005625	-44.003750	-7.835625
-113.887001	-54.290001	1078.846069	13.785625	-9.476250	-8.426250
-94.916000	-39.771999	1237.079956	-22.469999	6.628125	-0.026250
-138.104004	-45.323002	1184.071045	-35.796249	-22.443750	-12.831875
-159.820007	-15.067000	1302.349976	-17.749374	-7.056875	-5.175625
-136.701004	-193.553009	1323.639038	8.351875	-8.920625	-3.819375
-79.178001	-111.264000	1255.014038	25.738125	-8.828750	6.146875
-81.923004	-108.153000	1212.740967	12.223750	-9.944375	2.187500
-42.151001	-41.053001	1153.998047	14.192500	-15.369375	4.567500
-31.049000	-48.494999	1069.940063	4.646250	-5.845000	9.909375
-9.333000	-54.716999	1005.402039	-1.246875	-11.983125	6.755000
-9.089000	-50.202999	1012.294983	1.443750	-11.803750	4.571875
2.074000	-54.107002	988.809998	14.056875	-9.078125	3.928750
14.030000	-31.171000	1003.510986	17.193750	-13.816250	3.968125
16.958000	-29.341000	1023.275024	11.025000	-3.548125	4.204375
18.788000	-10.309000	1022.848022	8.019375	-5.753125	3.504375
11.895000	8.601000	1030.411987	6.545000	-2.454375	4.156250
22.021000	-4.514000	1025.837036	-0.371875	3.591875	2.139375
-0.732000	-11.834001	1017.236023	-7.896875	0.437500	-1.491875
15.006001	-26.535000	1053.409058	5.285000	-3.460625	0.809375
30.256001	-12.871000	1031.021973	10.731875	4.698750	0.122500
15.189000	25.315001	993.812012	-0.083125	11.795000	1.067500
9.089000	-1.403000	1023.824036	-6.129375	5.105625	0.511875
17.323999	10.004000	1000.156006	-6.864375	-0.035000	0.651875
5.551000	-13.542000	1018.639038	-8.662500	0.389375	-1.513750
6.588000	-8.113000	1011.502014	-4.720625	1.925000	-1.456875
11.041000	-30.195000	1006.439026	-3.508750	-1.102500	0.420000
3.477000	-31.354000	1019.187988	-0.393750	-1.890000	0.354375
12.078000	-24.644001	982.832031	1.378125	-3.298750	0.975625
8.174000	-28.670000	993.994995	1.277500	1.850625	-0.170625
19.153999	-15.067000	989.725037	3.946250	-5.766250	-1.780625
18.605000	-11.834001	987.285034	-0.074375	-2.174375	-0.743750
30.134001	-16.714001	971.546997	2.616250	-8.036875	0.459375
27.694000	-23.912001	947.635010	8.360625	-6.715625	0.818125
32.208000	-20.374001	954.588989	1.986250	-9.113125	-2.371250
81.618004	7.808000	1073.782959	4.029375	-20.606251	-3.648750
62.464001	39.894001	1331.568970	-10.311875	-15.631875	-2.926875
-0.183000	-51.240002	1573.190063	-15.391250	-11.283125	-5.337500
22.997000	20.130001	1564.467041	5.022500	25.799376	-5.954375
-11.468000	-15.982000	1593.747070	-33.459999	1.588125	-1.417500
-35.563000	-85.278000	1387.932983	-38.044998	9.528750	3.858750
34.892002	-117.058998	1310.707031	-19.499374	9.795625	-0.546875
84.973000	-125.416000	1123.802979	-0.223125	30.095625	-16.616249
63.867001	-27.267000	1026.935059	29.028126	27.545000	-23.734375
43.859001	-37.088001	869.127991	27.037500	57.408749	-20.041876
15.311000	17.019001	782.934998	16.288124	32.838749	-3.801875
48.250999	-1.830000	776.773987	13.028750	50.535625	4.690000
-46.909000	25.375999	708.148987	27.313126	33.788124	3.609375
-78.873001	35.257999	652.760986	25.856251	27.339375	0.000000
-127.489998	-25.498001	621.223999	8.509375	29.404375	0.857500
-135.725006	-7.991000	608.231018	-8.645000	28.468124	1.172500
-125.538002	-3.111000	644.892029	-15.036875	9.454375	7.367500
-114.436005	-26.108000	611.952026	-22.268749	6.733125	9.213750
-126.086998	-32.695999	609.390015	-15.395625	-3.023125	5.630625
-127.124001	-36.783001	712.296997	-14.196875	5.897500	-3.548125
-134.626999	-26.901001	744.565979	-16.550625	16.817499	1.688750
-176.900009	-53.985001	805.687988	-16.760626	17.780001	-1.793750
-123.525002	-62.341999	728.705994	-23.415001	1.631875	5.320000
-171.104996	-48.190002	883.158020	-30.104376	-19.429375	14.070000
-110.105003	-73.809998	916.098022	-12.110000	-76.321877	10.845625
-178.181000	-91.134003	1016.931030	12.223750	-22.924999	4.873750
-56.791000	-91.927002	1066.157959	32.974377	-66.998749	13.413750
-138.165009	-39.771999	1151.070068	31.845625	-0.883750	8.719375
-49.959000	69.600998	1083.359985	31.836876	28.678125	10.644375
-168.481995	21.167000	1358.896973	34.663124	-8.268750	7.332500
-97.966003	67.466003	1347.612061	12.075000	-25.536875	-2.922500
-84.912003	73.749001	1424.045044	-33.315624	-22.216249	-8.850625
-119.559998	6.893000	1388.359985	-19.766251	-15.299375	-15.588125
-38.857002	-18.239000	1201.516968	-17.215626	-34.571251	-14.599375
-34.282001	-23.424000	1172.786011	-7.354375	-17.788750	-8.500625
-22.753000	-2.440000	1097.084961	-7.997500	13.072500	-3.500000
-0.976000	3.782000	962.518982	1.933750	2.401875	3.237500
-1.159000	-24.644001	978.928040	-6.763750	2.773750	4.020625
-1.708000	-48.312000	1027.057007	-4.851875	0.301875	0.914375
6.100000	-48.556000	998.204041	-4.641875	1.369375	-5.394375
18.239000	-33.916000	1016.626038	-1.150625	-5.652500	-4.764375
-0.793000	-59.414001	1004.426025	-7.590625	-0.078750	0.459375
-6.466000	-40.931000	989.176025	-6.623750	-0.984375	3.482500
-6.100000	-44.591000	997.350037	6.177500	-9.476250	5.228125
-10.065001	-52.948002	1029.984985	11.598125	-0.743750	2.178750
5.002000	-23.485001	994.056030	8.964375	-5.276250	2.826250
7.442000	-32.757000	1014.918030	4.501875	-3.486875	0.660625
12.871000	-23.668001	1030.167969	1.837500	-3.425625	-0.083125
21.837999	-30.927000	1000.156006	-5.013750	4.799375	-1.036875
26.413000	-39.894001	1006.804993	-3.246250	-2.226875	-0.472500
17.629000	-45.383999	1003.816040	-2.043125	-1.951250	-1.141875
36.234001	-42.700001	987.833984	-0.021875	-1.697500	-2.034375
34.403999	-31.598000	999.546021	0.966875	-5.110000	-1.308125
32.330002	-25.010000	972.278992	1.601250	-4.808125	-0.148750
42.212002	-22.570000	962.885010	2.765000	-7.494375	-0.791875
59.535999	-15.555000	981.794983	6.461875	-10.255000	-0.218750
55.875999	-11.102000	1111.297974	4.077500	-23.113125	2.327500
48.983002	-24.888000	1455.947998	-1.863750	-32.436249	0.231875
13.359000	-56.608002	1612.596069	6.181875	-18.961250	-2.003750
61.183002	7.625000	1587.586060	2.721250	-16.240000	-2.253125
81.008003	-9.333000	1297.896973	-1.793750	-25.440624	-7.109375
140.056000	-8.540000	1217.437988	3.360000	13.343750	-8.369375
156.647995	-43.371002	1042.368042	-1.146250	20.181875	-2.918125
126.086998	24.034000	978.684021	-1.610000	26.893126	-7.389375
146.033997	-1.769000	981.184998	0.993125	13.733125	-8.925000
117.058998	13.603000	768.234009	-5.801250	29.771875	-5.560625
96.258003	-23.546000	797.697021	-9.108750	35.831249	-0.157500
-8.296000	-22.691999	669.780029	-8.916250	45.320625	-5.639375
-27.084000	10.675000	690.825012	-2.170000	57.421875	-2.445625
-40.077000	-33.549999	716.932983	1.802500	47.346249	4.226250
-2.196000	-42.577999	799.710022	18.230625	31.788750	1.728125
-68.990997	-5.551000	691.984009	22.540001	46.913124	-1.841875
-88.511002	13.542000	704.122986	20.409374	27.317499	4.213125
-121.512001	10.736000	653.249023	-2.362500	-0.770000	10.880625
-127.673004	-9.150001	768.843994	-7.739375	-17.106251	10.775625
-101.198997	16.531000	828.197021	-9.502500	-28.848749	-0.021875
-106.262001	18.483000	826.184021	-4.278750	-19.061874	-0.966875
-76.432999	14.396000	858.087036	-1.413125	-20.825001	-2.603125
-39.406002	20.252001	869.005981	-1.964375	-31.473749	1.452500
-52.399002	-3.965000	892.064026	5.096875	-11.624375	-3.648750
-26.108000	34.831001	885.109985	-10.311875	-26.026875	1.277500
-88.328003	24.888000	864.247986	-25.274376	23.043125	3.141250
-24.400000	16.287001	988.749023	1.408750	21.393749	7.380625
-20.679001	-7.503000	1137.344971	26.932501	-53.676876	4.738125
32.513000	-0.366000	1297.592041	15.102500	-26.236876	8.063125
10.614000	37.514999	1275.754028	-4.103750	-25.313749	-6.470625
-1.464000	13.725000	1331.691040	-44.113125	-35.560001	-0.717500
48.983002	-51.789001	1278.743042	-29.268749	-10.171875	-3.049375
1.891000	-36.112000	1281.732056	-9.415000	-19.503750	-2.843750
43.554001	-41.358002	1215.485962	13.790000	12.976250	6.580000
22.143000	-28.426001	1162.354980	25.344376	-3.517500	12.661250
27.084000	-24.461000	1103.734009	19.389999	3.696875	9.559375
18.971001	29.097000	1024.556030	4.935000	2.436875	0.179375
24.948999	26.352001	1027.422974	-4.195625	0.708750	-2.668750
25.864000	26.169001	1023.458008	-12.656875	-0.546875	-3.771250
49.105000	8.113000	1007.903015	-18.834375	-2.550625	-1.933750
51.910999	-8.296000	1009.549988	-14.739375	-3.539375	-1.163750
62.403000	-13.481000	987.773010	-8.281875	-4.803750	-0.958125
59.535999	-31.842001	1028.826050	1.098125	-8.452500	1.715000
74.969002	-36.478001	1002.169006	1.898750	-0.048125	-0.923125
74.664001	-33.549999	1006.561035	2.362500	0.966875	-4.007500
60.146000	-16.348000	1020.957031	2.695000	1.758750	-6.860000
58.621002	-10.248000	1021.322998	1.750000	3.622500	-3.841250
62.525002	-14.274000	1013.393005	-1.373750	1.960000	-0.441875
64.476997	-29.951000	1009.306030	-3.535000	3.268125	0.918750
57.706001	-37.027000	997.411011	-2.222500	4.620000	2.983750
49.166000	-34.831001	1029.130981	1.614375	1.666875	1.338750
57.767002	-36.417000	1009.976990	4.103750	2.673125	2.436875
47.824001	-31.598000	1030.961060	5.210625	1.802500	1.006250
62.281002	-10.858000	1004.487000	3.915625	1.960000	-0.525000
54.411999	-4.148000	1013.270996	1.990625	0.695625	-0.196875
61.183002	-16.226000	1004.426025	1.203125	5.451250	0.188125
58.865002	-5.246000	1004.059998	2.572500	-0.061250	-0.433125
55.388000	-6.405000	992.470032	5.700625	5.521250	-0.205625
52.338001	-2.684000	980.208984	4.908750	-0.065625	1.098125
50.874001	2.623000	974.536011	3.408125	1.785000	2.603125
43.188000	9.455000	995.153992	3.154375	-4.361875	0.822500
50.386002	5.978000	1024.373047	-2.305625	-6.973750	0.695625
64.476997	9.516000	1098.427002	-5.175625	-3.714375	0.735000
32.695999	-23.729000	1274.351074	-3.010000	-9.520000	-3.495625
60.451000	-21.106001	1385.493042	-4.926250	-19.844999	-5.425000
18.483000	-61.610001	1480.042969	1.798125	5.429375	-9.520000
61.854000	-33.733002	1354.078003	-6.518750	-9.856875	-13.265000
63.318001	-14.579000	1323.822021	3.648750	9.406250	-14.704375
87.473999	-23.607000	1209.630005	1.216250	12.810000	-13.829375
46.237999	33.672001	1019.432007	-1.631875	23.760626	-8.019375
52.154999	0.183000	1019.798035	-9.008125	35.516251	-2.708125
3.355000	25.742001	900.116028	-12.735625	36.430626	-1.693125
45.079002	-8.967000	932.934021	-0.533750	44.064999	-4.781875
1.281000	7.259000	894.931030	10.539375	36.413124	-12.915000
-41.541000	-14.823000	808.738037	8.881250	48.658749	-7.997500
-44.652000	-5.856000	795.135010	10.220000	36.706249	-9.305625
-75.639999	8.479000	752.312988	10.342500	31.600624	0.686875
-79.848999	18.300001	712.541016	3.255000	40.333126	9.891875
-111.996002	36.173000	649.833008	-2.598750	26.652500	18.650625
-81.191002	1.708000	650.931030	-10.535000	24.281250	21.656250
-107.909004	14.518001	581.513000	-12.586875	11.366250	24.443125
-109.556000	-40.504002	698.694031	-13.361250	-11.808125	16.769375
-100.345001	-9.455000	793.000000	-17.473749	-23.030001	10.167500
-108.945999	-12.688000	815.020996	-8.723750	-21.336876	2.515625
-127.551003	-40.748001	836.249023	-13.864375	-41.715626	-4.480000
-77.958000	-6.100000	876.020996	-14.065625	-58.060623	3.867500
-77.470001	-64.416000	915.854004	-5.735625	-52.088749	0.669375
-14.335000	-32.025002	998.752991	9.314375	-75.013748	-1.111250
-3.050000	-69.600998	1068.109985	-2.677500	-31.145624	-11.676875
15.860001	-33.184002	922.259033	5.328750	-49.695625	-19.088125
68.807999	-56.913002	1104.832031	10.373125	-25.361876	-12.538750
82.472000	-25.010000	1101.233032	-13.938750	-43.049999	-25.676874
112.301003	-26.901001	1270.081055	-14.848750	6.313125	-17.311874
102.358002	-59.597000	1227.503052	-2.213750	-18.584999	-15.732500
114.741005	-62.403000	1341.572998	-15.098125	1.386875	-6.321875
111.264000	-55.388000	1273.009033	-1.964375	9.441250	2.948750
91.195000	-52.399002	1227.747070	-0.931875	29.596874	10.241875
78.323997	-59.170002	1137.040039	20.361250	30.152500	13.295625
57.645000	-63.318001	1134.051025	25.046875	19.538750	21.468124
48.739002	-38.430000	1054.812012	13.680625	10.290000	20.444374
36.234001	-26.230000	1013.759033	9.104375	9.100000	19.180000
35.441002	-17.995001	988.871033	2.537500	16.830626	15.496250
9.943000	-16.226000	1008.330017	-2.209375	10.066875	9.314375
28.426001	11.468000	1004.182007	-5.376875	-0.153125	2.695000
20.862000	-3.843000	1006.927002	-5.884375	-0.218750	2.060625
30.073000	-22.875000	1020.468994	-10.705625	0.476875	-0.428750
28.304001	-23.180000	1012.539001	-11.593750	6.356875	-0.616875
23.607000	-49.471001	1016.260010	-5.998125	-2.848125	1.955625
25.802999	-40.748001	1012.905029	1.225000	0.621250	-0.078750
13.664001	-39.833000	1006.377991	3.539375	0.498750	0.017500
19.153999	-31.659000	1007.842041	2.515625	-1.627500	-1.111250
32.146999	-30.805000	999.119019	0.673750	-1.798125	0.691250
30.927000	-39.284000	1014.918030	-1.802500	0.402500	2.677500
24.278000	-39.040001	1003.389038	-0.183750	-0.647500	1.833125
25.559000	-39.771999	1010.343018	-1.067500	-3.351250	0.288750
35.624001	-24.948999	998.265015	-1.378125	-4.812500	-0.638750
39.589001	-29.341000	998.875000	-3.250625	-5.245625	0.306250
42.577999	-31.293001	970.265991	-4.112500	-8.833125	0.656250
55.937000	-42.761002	1029.497070	-4.348750	-9.362500	0.271250
68.930000	-69.845001	1262.212036	-6.667500	-14.560000	-0.227500
83.936005	-94.976997	1456.070068	-6.068125	-17.027500	2.178750
38.307999	-120.779999	1540.555054	4.405625	-11.943750	-0.498750
20.007999	-73.016998	1447.957031	17.080000	4.055625	-7.091875
43.920002	-42.700001	1277.706055	21.209999	-3.780000	-12.893125
49.166000	-11.529000	1147.287964	14.266875	24.530624	-12.915000
37.820000	-7.747000	987.773010	0.450625	8.907500	-13.890625
23.424000	25.437000	918.354980	-14.131250	34.076874	-1.251250
32.818001	1.342000	957.882996	-20.868750	23.887501	5.040000
15.799000	23.363001	874.434998	-7.052500	29.356251	3.456250
-31.476000	-10.126000	882.731018	1.951250	30.349375	2.244375
3.294000	-8.357000	844.362000	20.221251	-9.528750	-7.861875
10.919000	-27.145000	870.408997	17.526251	17.920000	-6.413750
-13.786000	22.082001	773.906982	17.902500	18.742500	-2.156875
-10.614000	23.973000	801.296021	1.890000	19.766251	10.793125
2.501000	-1.708000	806.968994	1.281875	4.055625	9.533125
5.917000	6.161000	833.747986	-1.763125	21.170626	3.915625
5.551000	5.612000	749.445984	-1.386875	12.180000	1.128750
8.357000	2.196000	706.807007	-8.623125	24.788750	-0.301875
-51.300999	2.989000	681.309021	-16.082500	11.361875	-1.400000
-24.948999	-0.305000	750.726990	-21.783125	2.283750	-1.999375
-78.507004	-65.391998	763.231995	-29.924999	-8.058750	0.616875
-54.229000	-68.625000	822.341003	-29.106874	-7.236250	-3.158750
-99.979004	-74.664001	807.091003	-9.944375	-13.466250	-3.395000
-65.758003	-85.339005	857.965027	-8.680000	-30.926874	-13.002500
-55.327000	-66.184998	870.713989	2.244375	-32.576248	-3.447500
-18.361000	-88.754997	1025.287964	5.779375	-49.599377	-11.046875
32.085999	-52.643002	951.112000	20.063749	-28.297501	-11.147500
-0.671000	-15.006001	1137.223022	18.116875	-38.841251	21.205626
34.403999	-75.212997	1182.363037	22.067499	14.787500	14.936250
33.672001	-46.177002	1308.693970	44.904999	-15.312500	-4.755625
41.663002	34.403999	1360.727051	25.725000	5.551875	-5.941250
1.952000	59.230999	1302.655029	8.653750	-0.096250	-8.942500
-0.244000	68.747002	1198.711060	-7.656250	13.895000	0.450625
9.333000	36.112000	1146.373047	-19.271875	-5.823125	3.228750
12.261000	3.782000	1194.562988	-3.460625	8.566250	7.240625
23.607000	-4.331000	1142.286011	-6.724375	1.404375	3.946250
23.729000	-9.272000	1093.485962	-5.495000	8.308125	5.215000
-3.721000	-13.725000	1060.057983	-6.860000	3.994375	1.115625
16.531000	2.989000	1007.658997	-6.300000	-0.761250	0.420000
17.873001	-16.287001	1025.044067	-7.017500	1.404375	5.302500
8.113000	-18.056000	1030.229004	-9.970625	5.464375	4.348750
0.671000	-33.977001	1017.663025	-10.780000	6.247500	0.896875
-8.357000	-39.284000	1053.775024	-1.868125	0.297500	1.903125
-5.002000	-32.208000	1032.791016	-0.704375	1.728125	-0.826875
-5.734000	-15.616000	1018.395020	-5.665625	8.833125	-3.679375
29.219000	-37.758999	984.052002	-10.132500	-25.786249	-2.209375
26.413000	-46.542999	991.250000	-17.438749	-2.909375	-2.047500
45.993999	-52.582001	987.406982	-14.686875	8.255625	-1.233750
28.731001	-69.112999	1021.505981	-10.521875	24.946251	1.356250
-2.928000	-84.180000	1000.338989	0.266875	-1.697500	-0.402500
10.614000	-56.424999	1005.280029	8.176875	-2.086875	-0.433125
10.492001	-65.636002	996.923035	6.295625	-0.070000	-0.398125
10.614000	-49.348999	963.556030	6.978125	-1.841875	-1.413125
13.359000	-48.312000	998.570007	4.427500	-5.136250	-2.292500
12.139000	-56.119999	1164.489990	0.778750	-11.799375	-0.433125
-4.758000	-96.806999	1363.655029	3.745000	-13.606250	1.754375
-30.561001	-96.868004	1460.035034	9.156875	-2.633750	-2.331875
-25.254000	-41.663002	1376.037964	14.148750	7.056875	-4.125625
1.769000	-35.014000	1208.227051	7.910000	9.375625	-2.520000
-34.587002	-67.709999	1127.707031	-0.533750	11.563125	-3.600625
-20.618000	-30.988001	998.630981	-0.048125	26.241249	-7.004375
-18.726999	-28.426001	1041.391968	-16.318750	7.109375	-6.286875
-26.779001	-10.492001	970.876038	-5.853750	2.065000	-4.038125
-20.984001	-48.129002	982.283020	-10.920000	13.982500	-0.533750
-16.714001	-9.943000	975.755981	11.965625	-1.456875	-4.366250
-12.505000	-50.996002	978.317993	-0.892500	19.438126	2.362500
-26.352001	-24.278000	972.523010	3.836875	32.514999	-2.948750
-41.418999	-23.607000	938.484985	2.073750	30.603125	-6.527500
-36.478001	15.372000	914.512024	4.755625	38.736252	-4.711875
-31.415001	-26.047001	910.119995	4.475625	24.587500	0.643125
-67.954002	4.148000	731.085022	13.864375	36.636250	-2.043125
-80.398003	-6.832000	737.062988	17.040625	31.578751	2.603125
-40.443001	7.808000	708.575989	13.142500	12.333125	3.482500
-62.159000	-7.869000	652.944031	-0.013125	19.696251	6.685000
-58.132999	-4.758000	680.455017	-4.270000	-1.290625	-0.822500
-85.339005	7.869000	700.401978	-14.061250	-11.742500	2.585625
-56.730000	-22.021000	698.999023	-16.695000	-9.944375	1.015000
-93.513000	-12.139000	764.085999	-27.352501	-14.105000	-0.971250
-44.408001	-56.913002	830.088013	-24.180626	-14.686875	-0.682500
-123.037003	-28.304001	846.314026	-24.263750	-18.278749	-15.041250
-122.549004	-159.332001	915.609985	-7.905625	-47.805626	-2.690625
-114.862999	-116.448997	985.699036	13.969375	-42.004375	-18.843124
-94.306000	-78.690002	981.367981	20.090000	-33.744373	5.538750
-64.050003	-94.733002	1186.266968	13.024375	-24.040625	2.292500
-30.622000	-36.904999	1143.140015	-12.289375	5.346250	-14.651875
-99.917999	-7.015000	1190.049072	-22.754375	-20.243126	-18.934999
-37.271000	-10.736000	1213.777954	6.916875	32.738125	-2.415000
-110.836998	-82.411003	1303.813965	18.160625	-15.662500	9.690625
-51.728001	-20.618000	1278.255005	23.388750	0.796250	22.369375
-73.261002	-35.501999	1299.910034	14.761250	0.183750	32.794998
-57.401001	-59.414001	1199.138062	15.815625	-9.226875	27.055000
-38.003002	-39.101002	1186.450073	7.704375	-10.845625	15.951250
-43.126999	-25.864000	1033.766968	0.424375	-4.847500	5.722500
-32.269001	1.281000	1020.713013	-1.470000	-16.550625	-0.459375
-23.912001	-21.594000	1043.343994	-0.424375	-10.071250	-1.277500
-7.259000	-5.185000	1013.759033	0.402500	-1.413125	-1.951250
14.213000	-11.285000	1026.385986	1.290625	-4.055625	-0.542500
6.954000	-3.965000	1029.070068	0.914375	3.014375	-2.222500
16.836000	3.599000	1012.112000	-2.747500	-4.256875	-1.863750
17.019001	1.525000	1028.826050	-3.259375	0.651875	-3.657500
10.431000	-4.087000	1020.225037	-5.105625	-3.622500	-5.398750
19.886000	-6.100000	1027.789062	-4.711875	-1.281875	-4.243750
5.246000	-14.335000	1051.334961	2.305625	-0.634375	-0.660625
10.370000	-25.132000	1013.575989	5.713750	3.521875	-0.529375
22.387001	-1.769000	996.374023	5.950000	5.193125	-0.774375
12.749001	1.586000	1006.255981	-1.176875	2.900625	-1.535625
9.516000	-3.599000	1003.267029	-2.498125	-0.013125	-2.883125
29.707001	-11.285000	1009.733032	-4.650625	-0.691250	-4.449375
17.263000	-15.128000	1000.278015	-4.265625	-2.695000	-7.905625
23.851000	-19.825001	977.708008	-1.478750	-0.691250	-9.817500
34.098999	-11.163000	975.207031	-0.227500	-5.709375	-10.819375
31.171000	-19.215000	1011.441040	2.765000	-5.836250	-9.030000
36.844002	-9.821000	1056.458984	-0.253750	-8.172500	-5.516875
36.112000	-1.159000	1218.230957	-6.190625	-15.085000	-1.400000
-34.403999	-46.970001	1462.291992	-3.692500	-8.496250	-0.446250
-31.903000	-68.990997	1479.494019	-4.270000	8.675625	-6.164375
-25.559000	-7.503000	1379.088013	-7.651875	-6.566875	-13.545000
-7.137000	-55.021999	1256.355957	-18.038124	-8.653750	-13.278125
22.021000	-59.597000	1060.667969	-15.649375	-6.461875	-14.826875
50.325001	-49.227001	1084.092041	-10.504375	-3.263750	-11.396875
58.681999	-29.280001	974.414001	-13.641250	10.329375	-3.976875
74.481003	-38.247002	1007.415039	-0.988750	21.927500	-1.067500
121.146004	-65.514000	1006.195007	3.535000	32.606876	4.291875
90.524002	-8.845000	979.355042	-5.005000	56.266876	3.937500
31.537001	-61.732002	943.487000	-6.518750	51.218124	1.828750
-42.761002	-18.605000	843.385986	-0.087500	45.478127	7.385000
-56.730000	-55.449001	829.416992	21.590626	24.443125	5.385625
-57.522999	-71.187004	828.319031	29.049999	23.318750	-1.443750
-88.571999	-20.862000	711.992004	23.030001	30.244375	-1.820000
-79.117004	19.825001	722.057007	16.944374	34.768124	11.939375
-96.501999	-6.344000	671.366028	1.378125	23.642500	14.017500
-78.263000	-23.118999	659.410034	-5.744375	10.990000	15.990625
-71.858002	-41.846001	703.452026	-14.284375	2.913750	10.106250
-101.992004	2.318000	721.874023	-16.450001	-2.896250	0.183750
-97.051003	-17.385000	792.207031	-19.136250	-22.098125	1.010625
-68.807999	1.525000	831.856995	-28.336876	-29.251249	0.363125
-64.416000	-70.028000	879.376038	-19.809999	-38.395000	9.205000
-83.997002	-79.422005	879.376038	-7.980000	-55.575626	4.191250
-24.644001	-79.422005	954.588989	15.176875	-47.687500	1.500625
-37.758999	-28.121000	991.738037	-9.646875	-36.277500	2.450000
-1.098000	-57.950001	994.483032	-7.756875	-20.033125	17.360001
-6.039000	-84.302002	1000.460999	-4.475625	0.074375	18.436251
-7.747000	-79.543999	1081.103027	15.806875	23.393126	12.031250
-14.274000	-109.128998	1162.904053	19.709375	-18.252501	11.764375
-32.513000	-87.108002	1147.654053	36.268749	-5.486250	-0.953750
-61.366001	-18.849001	1115.140991	44.572498	-5.635000	-2.856875
-9.394000	41.541000	1203.957031	20.514376	-16.327499	-5.359375
-10.431000	59.353001	1194.624023	-6.908125	-25.611250	-8.636250
27.328001	46.055000	1341.268066	-39.698750	-25.978750	-8.487500
50.813000	4.453000	1291.492065	-25.226250	-17.150000	-8.268750
29.524000	-31.964001	1219.511963	-23.909374	16.257500	-3.565625
30.500000	-35.075001	1087.751953	-7.144375	-0.971250	-3.500000
20.557001	-42.028999	1061.400024	6.916875	4.904375	-0.630000
35.868000	-34.892002	1003.023010	7.787500	9.603125	-0.258125
31.232000	-16.287001	1012.539001	13.466250	3.128125	5.180000
38.430000	-34.526001	1023.640991	10.959375	2.380000	4.112500
49.776001	-7.381000	1009.244995	9.485000	2.686250	4.011875
42.821999	-3.538000	1024.067993	7.105000	0.035000	1.627500
30.683001	-9.089000	1027.301025	2.406250	-0.743750	-0.533750
47.885002	8.418000	1012.478027	-4.558750	2.712500	-2.100000
28.548000	-8.662000	1004.487000	-10.285625	1.325625	-3.233125
35.257999	-0.366000	1004.304016	-8.513750	0.161875	-1.995000
35.196999	-14.884000	1019.066040	-9.778125	3.285625	-1.890000
46.665001	-16.896999	1006.561035	-5.608750	0.910000	-2.305625
35.319000	-20.313000	1010.343018	-2.511250	5.823125	0.144375
37.698002	-29.951000	1008.695984	-1.916250	-1.321250	0.122500
24.888000	-29.951000	1018.944031	1.102500	4.073125	-0.393750
32.818001	-33.916000	1014.674011	-0.612500	-0.105000	-1.216250
35.257999	-31.476000	1006.866028	-0.879375	1.334375	-2.082500
37.881001	-29.707001	997.960022	-0.787500	-0.651875	-2.756250
35.257999	-34.892002	990.518005	-1.443750	-1.903125	-2.467500
44.896000	-33.184002	968.863037	-1.050000	-0.406875	-1.973125
40.504002	-41.480000	971.851990	-1.010625	-7.332500	-3.565625
46.848000	-31.598000	935.312988	2.856875	-8.015000	-3.928750
56.424999	-24.034000	1001.742004	2.940000	-21.643126	-1.404375
74.176003	-10.797000	1229.881958	3.679375	-24.692499	3.171875
46.970001	-48.129002	1518.594971	8.163750	-4.606875	4.663750
20.191000	-91.317001	1547.203979	-1.540000	11.431875	1.251250
54.290001	-27.511000	1439.905029	-11.891250	17.591875	9.603125
58.316002	-81.251999	1363.045044	-18.650625	-13.470625	9.231250
38.857002	-54.107002	1287.161011	-7.170625	-33.420624	8.378125
97.294998	-35.806999	1134.112061	3.731875	-2.695000	-0.809375
118.950005	5.612000	1115.263062	16.296875	7.301875	-10.062500
67.039001	8.540000	903.410034	-0.586250	39.913124	-2.213750
102.418999	23.363001	954.345032	-6.510000	65.178749	5.630625
54.411999	0.976000	885.231995	5.608750	53.707500	10.233125
25.864000	13.603000	876.692017	-6.251875	50.662498	9.594375
29.585001	-47.763000	803.309021	-8.181250	47.516876	0.035000
-36.355999	-21.045000	747.554993	-5.390000	45.718750	-9.183125
-87.413002	9.394000	631.838013	-0.411250	13.571250	-7.516250
-89.548004	-39.894001	484.278992	7.818125	-28.371876	-14.888125
-55.265999	-96.136002	562.359009	-0.336875	110.219376	-11.593750
-95.160004	-30.134001	578.828979	-0.538125	-12.490625	0.638750
-87.718002	-58.194000	580.109985	-7.183750	1.636250	-0.568750
-63.135002	-63.562000	655.750000	-12.726875	-23.003750	-5.359375
-23.851000	-66.368004	739.320007	-11.318125	-30.275000	-7.380625
-52.154999	-80.093002	736.330994	-6.072500	-24.084375	-7.284375
-8.357000	-90.524002	827.648010	-9.205000	13.969375	-1.286250
-43.431999	-88.511002	779.213989	-29.006250	-13.925625	2.222500
-24.521999	-109.800003	894.320984	-44.340626	-35.048126	5.223750
12.505000	-154.208008	1021.994019	-40.674374	-39.689999	0.761250
38.003002	-207.339005	1048.285034	-10.381875	-21.166250	-15.715000
-106.079002	-176.473007	1021.262024	-17.666250	-12.757500	-7.468125
51.179001	-92.964005	1280.390015	13.881875	42.441875	10.920000
-205.447998	-214.841995	1274.411987	34.549374	8.076250	13.396250
-111.996002	-122.792999	1287.282959	20.641251	-90.536247	11.681250
-136.762009	-177.022003	1296.799072	35.297501	4.939375	8.605625
-118.645004	-131.333008	1305.521973	8.579375	-38.250626	-3.985625
0.305000	-78.933998	1185.656982	-3.613750	-34.960625	-15.006250
-24.888000	-123.280998	1225.307007	-8.815625	-6.851250	-19.556250
36.173000	-75.701004	1129.292969	-4.720625	-11.790625	-18.383751
45.018002	-119.499001	1177.177979	0.756875	0.905625	-11.239375
45.750000	-107.116005	1093.425049	9.992500	8.719375	-9.926875
50.142002	-69.417999	996.679016	15.141875	9.253125	-4.121250
40.443001	-77.348000	985.882019	15.811250	-2.441250	-3.587500
67.282997	-49.959000	1012.721985	14.144375	-6.593125	-2.568125
56.791000	-50.507999	1009.489014	9.642500	-1.146250	2.642500
64.355003	-36.234001	1009.244995	9.716875	-1.898750	5.744375
55.815002	-41.663002	1016.015991	8.693125	-1.093750	6.216875
48.861000	-26.352001	1026.324951	10.679375	2.961875	3.115000
52.948002	-13.908000	1009.611023	7.551250	-0.415625	2.773750
54.534000	-2.745000	1000.217041	5.993750	3.451875	1.973125
46.360001	3.843000	1005.890015	8.741250	-0.988750	2.690625
60.329002	-5.490000	1004.487000	3.066875	-3.819375	4.160625
47.580002	-1.464000	1007.842041	1.006250	-2.957500	3.609375
49.166000	-3.965000	1009.733032	-0.490000	0.971250	1.080625
52.582001	-14.884000	1014.613037	-1.522500	2.279375	0.000000
55.144001	-13.969000	974.414001	-1.916250	0.153125	-0.310625
48.983002	-29.951000	956.236023	-4.112500	0.236250	0.826875
55.875999	-26.047001	960.384033	-3.762500	-1.859375	-0.166250
66.489998	1.159000	1064.876953	1.566250	-6.510000	-2.104375
38.917999	-16.104000	1246.046997	14.424375	-15.435000	-0.853125
23.058001	-16.287001	1259.161987	14.612500	8.780625	-6.588750
-12.749001	29.707001	1283.500977	8.124375	8.386875	-11.103750
3.172000	9.882000	1414.346069	-7.074375	2.603125	-11.200000
15.250000	4.819000	1402.268066	-18.563126	0.131250	-10.259375
33.916000	-20.007999	1276.852051	-21.739374	-17.145624	-12.486250
44.225002	-7.137000	1185.779053	-4.340000	1.907500	-11.676875
36.783001	14.579000	1087.691040	-0.896875	21.161875	-6.133750
38.552002	29.585001	1021.932983	-2.100000	29.098125	-0.288750
73.383003	35.685001	1009.976990	-11.156250	31.972500	8.802500
95.038002	15.555000	990.152039	-4.869375	21.345625	6.562500
57.522999	-6.771000	915.609985	-5.591250	38.294376	7.818125
37.758999	34.587002	909.510010	1.461250	18.007500	-2.091250
-40.015999	-105.469002	840.763000	-16.358126	24.701250	-13.881875
-89.974998	21.837999	724.863037	6.383125	23.415001	-21.030624
-34.342999	-67.282997	762.377991	5.884375	39.663750	1.995000
-49.410000	-29.036001	670.939026	4.121250	26.757500	4.252500
-15.067000	-36.355999	851.010986	3.749375	22.076250	13.671875
-22.936001	-83.204002	648.674011	-2.117500	39.580624	17.469376
-32.452000	-55.632000	622.565979	-6.116250	27.317499	5.254375
-92.049004	-57.218002	678.869019	-5.320000	14.258125	-1.176875
-127.673004	-18.910000	540.338013	-12.735625	-23.205000	2.143750
-127.124001	-39.650002	836.249023	-10.613750	-15.421875	11.239375
-137.250000	-45.932999	805.444031	-1.640625	-20.365625	12.901875
-83.997002	-87.718002	878.949036	-0.975625	-61.643749	-1.426250
-144.447998	-37.332001	900.359985	-35.214375	-34.133751	-1.045625
-50.630001	-20.679001	948.001038	-21.713125	-1.890000	-8.684375
-89.121002	-127.001999	1028.459961	-15.229375	-0.319375	5.201875
-84.667999	-90.584999	1014.734985	12.359375	-1.938125	-10.863125
-123.098000	-144.387009	1223.964966	3.141250	7.910000	7.472500
-48.129002	-147.376007	1211.886963	9.594375	-46.357498	-12.215000
-39.833000	-64.598999	1359.323975	18.291876	-89.398750	-9.397500
66.246002	-50.874001	1234.578979	24.469376	40.490623	-3.360000
9.333000	-32.879002	1109.468018	11.991875	2.296875	4.593750
39.711002	-37.027000	1105.807983	21.511875	-25.042500	0.931875
68.747002	-29.829000	1168.333008	32.436249	-8.216250	10.416875
71.613998	-11.895000	1256.966064	32.580624	-25.042500	13.225625
94.428001	0.976000	1207.556030	27.728750	-17.465000	12.985000
70.272003	29.463001	1097.145996	17.648750	-5.013750	12.915000
74.176003	56.303001	1039.013062	0.883750	2.261875	5.425000
109.312004	53.680000	1004.731018	-4.064375	5.280625	3.972500
97.844002	37.332001	1028.765015	-7.704375	-1.802500	-0.455000
104.493004	37.698002	1011.075012	-3.762500	8.076250	-2.677500
94.733002	44.164001	1025.044067	0.223125	5.206250	1.382500
106.079002	22.326000	1024.312012	3.981250	1.916250	2.178750
91.072998	40.138000	995.520020	2.533125	14.288750	1.229375
79.666000	33.855000	995.520020	-7.035000	11.458125	1.133125
70.820999	16.836000	994.361023	-11.506250	9.996875	-1.343125
85.948997	12.871000	1014.307983	-14.144375	9.030000	-2.791250
63.013000	-3.721000	1036.511963	-6.549375	9.721250	-4.751250
44.713001	-4.148000	1019.981018	-5.241250	11.742500	-3.845625
30.622000	-14.640000	1027.239990	-6.895000	-1.658125	-2.108750
33.244999	-12.871000	1015.772034	-6.864375	5.289375	-1.426250
39.345001	-14.030000	1019.066040	-4.077500	-0.008750	-2.660000
37.088001	-15.982000	1019.187988	-6.741875	1.448125	-1.981875
37.027000	-14.335000	1021.445007	-7.004375	2.060625	-1.168125
37.271000	-26.291000	999.911987	-1.846250	0.752500	0.000000
41.480000	-20.984001	994.788025	-1.920625	0.735000	-0.345625
43.249001	-26.169001	993.202026	0.017500	3.500000	-0.498750
44.042000	-21.106001	992.531006	-0.284375	-2.432500	-1.032500
50.813000	-22.753000	998.509033	-2.979375	-3.443125	-1.150625
56.303001	-41.114002	1038.890991	-7.783125	-9.380000	0.205625
71.065002	-44.529999	1176.385010	-9.590000	-13.103125	-0.870625
54.046001	-84.667999	1375.183960	-0.730625	0.805000	1.688750
26.352001	-75.579002	1433.988037	5.040000	4.121250	-1.671250
-8.113000	-58.255001	1483.276001	25.099375	8.855000	-2.393125
-0.549000	-71.918999	1358.531006	20.671875	-9.813125	-7.813750
20.618000	-10.126000	1225.795044	16.878750	3.858750	-11.987500
-6.649000	13.847000	1047.125977	1.535625	5.740000	-15.351875
2.928000	63.867001	941.901001	-8.452500	9.340625	-12.705000
-13.725000	73.321999	916.768982	-27.173124	-12.621875	-8.531250
18.361000	50.630001	974.414001	-19.923750	8.806875	0.638750
116.205002	-104.126999	999.546021	-33.626251	32.781876	15.933750
90.158005	-16.653000	930.005981	-21.949375	29.303749	13.028750
53.985001	-58.376999	793.122009	-7.949375	52.928749	15.881250
-12.749001	-39.833000	676.673035	15.211875	18.755625	1.658125
32.146999	-11.163000	649.466980	29.916250	43.286251	-0.748125
8.052000	-48.556000	654.225037	17.622499	19.473125	6.680625
11.651000	-38.917999	631.044983	5.845000	21.848749	7.988750
1.830000	-32.330002	597.129028	-3.193750	4.423125	10.224375
-14.213000	-53.558002	661.606018	-11.256875	-2.454375	-0.350000
-22.448000	-30.316999	762.317017	-18.847500	6.221250	-4.239375
-43.249001	-55.144001	796.965027	-11.357500	29.277500	-7.026250
-16.531000	-68.990997	836.127014	-6.886250	-0.826875	-5.796875
-95.160004	-156.221008	938.179993	-1.150625	-18.497499	2.813125
-50.325001	-57.584000	981.856018	0.691250	-45.714375	-8.640625
-127.856003	-96.380005	1036.695068	-15.557500	-39.799374	10.377500
0.793000	-56.913002	1038.159058	-5.368125	-15.146250	-9.598750
-115.107002	-49.105000	986.614014	-1.535625	-3.622500	-1.500625
-108.945999	-9.150001	988.322021	16.646875	25.484375	-14.695625
-98.942001	-21.777000	1224.635986	-2.839375	-1.754375	-3.622500
-21.289000	-39.284000	1110.810059	-23.646875	-48.151249	-5.499375
-30.134001	-70.455002	1177.848999	-3.478125	4.480000	-4.300625
-28.059999	-151.645996	1235.677002	5.145000	-10.333750	-9.808750
9.028000	-74.114998	1273.070068	6.216875	-36.872501	-13.453125
13.298000	-70.638000	1275.265991	12.621875	-11.707500	0.157500
11.773000	-111.203003	1270.935059	7.284375	-12.748750	11.278750
7.625000	-93.330002	1197.003052	17.329374	-5.600000	13.816250
2.318000	-60.878002	1075.369019	12.621875	-8.089375	12.110000
23.302000	-74.419998	1030.167969	4.528125	-6.422500	5.831875
41.418999	-56.424999	1007.598022	3.185000	5.757500	1.758750
38.917999	-51.545002	1003.083984	6.278125	11.186875	3.132500
44.347000	-25.375999	984.845032	9.629375	14.818125	1.526875
33.855000	-19.276001	1012.783020	10.850000	0.520625	2.681875
30.073000	-11.590000	1017.419006	3.460625	-3.403750	0.476875
46.421001	5.429000	1022.238037	-3.451875	-0.883750	0.157500
34.038002	-16.592001	1042.795044	-5.136250	-3.430000	-2.296875
33.855000	-31.354000	1041.574951	-4.440625	0.450625	-3.478125
39.711002	-4.331000	995.153992	-2.747500	0.665000	-4.703125
41.358002	-21.228001	972.278992	1.828750	-8.697500	0.730625
54.656002	-30.561001	1049.626953	0.568750	-6.571250	-0.358750
54.534000	-11.956000	995.398010	-6.072500	1.916250	-0.910000
46.786999	-33.428001	988.200012	3.307500	2.821875	2.086875
57.584000	-31.598000	1018.455994	9.865625	-6.549375	3.517500
52.764999	-36.660999	1004.548035	3.561250	-5.823125	-0.380625
66.917000	-8.418000	982.283020	3.018750	5.635000	-0.560000
57.096001	-24.278000	1008.085999	-2.043125	1.500625	-3.150000
61.854000	-13.847000	989.298035	-3.123750	3.985625	-4.156250
52.704002	-19.093000	1070.489014	-6.133750	-4.274375	-3.937500
42.517002	-25.375999	1153.998047	-9.113125	-0.621250	-1.413125
17.263000	-73.504997	1383.052979	-9.235625	0.306250	2.086875
-29.341000	-103.334000	1544.641968	-2.275000	13.816250	-2.108750
5.246000	-105.286003	1473.515991	-9.769375	-14.704375	-16.003750
17.629000	-123.708000	1448.384033	-28.201250	-26.096874	-27.825001
94.367004	-66.489998	1205.969971	-1.662500	-29.588125	-28.013124
74.359001	-59.963001	1056.581055	-8.106875	12.473125	-23.349375
55.205002	10.370000	870.348022	6.260625	22.732500	-16.043125
81.251999	5.307000	877.484985	5.197500	43.929375	-6.488125
53.924000	16.714001	876.509033	7.078750	17.950624	1.124375
75.639999	-4.026000	911.096008	-3.023125	53.125626	4.160625
-7.259000	11.163000	784.887024	7.398125	44.139374	3.784375
10.248000	-33.977001	820.877014	11.396875	46.326874	2.953125
1.403000	31.049000	797.819031	15.041250	16.393126	-1.120000
-25.802999	-19.093000	788.364014	4.051250	22.763124	14.091875
-25.986000	-11.590000	774.639038	8.076250	18.274376	11.379375
-51.056999	-32.085999	658.007019	-2.808750	37.869999	9.410625
-45.323002	-20.434999	660.812988	-11.265625	22.986250	10.893750
-39.223000	-23.912001	630.923035	-9.340625	31.163124	12.621875
-76.555000	-68.747002	761.036011	-14.306250	-2.248750	11.278750
-68.076004	-86.925003	741.699036	-14.686875	7.748125	6.142500
-111.325005	-48.373001	842.531982	-23.594376	-20.978125	3.303125
-108.823997	-71.065002	859.856018	-24.578751	-8.859375	4.471250
-110.410004	-89.243004	874.496033	-21.581875	-20.173124	5.411875
-164.212006	-150.975006	945.622009	-17.088751	-5.613125	-1.421875
-38.674000	-113.521004	935.374023	4.528125	-39.431873	-5.136250
-120.231003	-103.456001	1059.875000	-1.614375	-49.931873	-2.362500
-45.506001	-70.028000	1027.118042	9.463125	-22.478750	-2.305625
-110.593002	-46.542999	1005.036011	10.806250	-12.731250	2.362500
107.360001	-72.406998	1149.484009	21.179375	-21.603750	3.836875
-72.223999	-37.027000	1214.327026	11.987500	-31.806250	9.550625
17.141001	-31.781000	1265.384033	-3.937500	-19.210625	13.260625
-17.019001	-84.545998	1270.141968	-1.365000	-23.183125	14.748125
-12.017000	-85.888000	1324.432007	9.948750	-15.435000	3.788750
26.352001	-75.639999	1265.750000	10.097500	-1.159375	-0.813750
-0.061000	-59.414001	1181.875000	4.480000	9.218125	-6.921250
9.882000	-60.389999	1095.620972	15.833125	11.536875	-10.185000
17.385000	-28.609001	1073.416992	15.911875	5.411875	-7.118125
25.071001	-20.252001	1013.697998	9.940000	12.705000	-3.158750
15.555000	-28.731001	1000.765991	11.641875	7.700000	3.259375
12.688000	-13.847000	991.859985	11.375000	8.181250	5.801250
5.124000	-18.605000	1012.600037	7.875000	1.246875	7.424375
5.490000	-5.307000	1017.785034	2.327500	1.614375	4.663750
19.215000	-1.586000	1016.442993	-5.013750	3.075625	1.474375
-2.501000	-11.590000	1048.406982	-8.505000	1.001875	-1.006250
4.331000	-4.880000	1013.637024	-4.812500	4.388125	-5.871250
12.139000	4.819000	1003.145020	-7.774375	0.879375	-7.420000
9.333000	-12.688000	1027.972046	-8.723750	4.904375	-6.269375
6.527000	-20.374001	1024.860962	-7.476875	1.426250	-2.625000
5.246000	-25.071001	1016.504028	-10.136875	2.550625	-0.966875
-13.298000	-47.702000	1017.419006	-3.745000	4.773125	0.695625
-15.616000	-41.663002	986.674988	2.891875	2.380000	0.030625
-8.906000	-39.833000	1016.869995	2.856875	-0.643125	-0.253750
-8.906000	-38.796001	1026.203003	0.586250	0.262500	-0.070000
-11.834001	-37.637001	1022.665039	0.809375	3.049375	0.105000
3.660000	-36.600002	1014.552002	-0.468125	2.546250	0.525000
-11.102000	-31.964001	998.325989	0.122500	0.253750	-0.043750
-9.211000	-31.476000	989.359009	0.980000	-0.494375	0.288750
1.891000	-22.143000	974.109009	1.780625	-0.931875	-0.210000
15.555000	-18.300001	963.129028	5.289375	-5.998125	-1.098125
19.459000	-15.067000	1000.643982	10.027500	-13.212500	-2.738750
20.130001	7.198000	1085.677979	2.493750	-5.875625	-0.266875
61.854000	-5.002000	1433.805054	-39.423126	-28.975624	-10.390625
-13.542000	-158.660995	1726.117065	-55.313126	-60.602501	-17.758125
-23.729000	-218.807007	1502.247070	-26.731251	-2.397500	-32.970001
-6.344000	-172.691010	1326.018066	-18.606874	0.170625	-44.240002
67.832001	-103.578003	1142.713013	-12.604375	11.357500	-33.013748
129.380997	-104.431999	1107.638062	-10.565625	13.186250	-11.436250
200.751007	-42.212002	901.580017	-7.301875	15.382500	3.053750
115.900002	-106.932999	918.354980	4.033750	11.217500	16.178749
69.052002	-54.290001	803.065002	13.746250	11.046875	10.876250
-22.082001	-57.522999	821.121033	18.720625	26.180000	13.081250
-20.984001	-89.609001	781.044006	20.006874	22.675625	10.145625
-20.374001	-52.521000	788.669006	26.836250	29.251249	4.038125
20.434999	-51.362000	845.460022	24.513124	29.443750	5.783750
49.593002	-34.831001	778.604004	19.385626	41.509998	8.715000
-8.967000	-38.063999	808.127991	9.327500	33.118752	13.750625
-46.360001	-35.746002	746.822998	0.818125	21.118126	5.910625
-67.527000	-32.146999	740.661987	-1.990625	20.352501	-3.972500
-56.913002	-34.221001	695.705017	-18.370625	7.437500	-2.795625
-82.594002	-65.514000	748.897034	-20.085625	-10.040625	-0.021875
-46.970001	-58.621002	794.585999	-13.265000	-14.420000	1.439375
-48.983002	-92.842003	772.442993	-21.669374	5.586875	-1.115625
-79.238998	-90.584999	751.093018	-27.475000	-14.472500	-7.752500
-28.914000	-86.437004	772.015991	-24.539375	-9.695000	-11.746875
-97.722000	-85.400002	886.879028	-16.948750	-14.148750	-6.278125
-3.050000	-117.791000	977.647034	0.336875	-23.231251	-3.027500
-41.174999	-147.193008	896.151001	26.368126	-20.868750	-18.313749
28.670000	-27.877001	1035.963013	52.228748	-5.451250	-10.408125
-13.237000	-72.528999	1147.837036	41.164375	-59.237499	-1.776250
-7.137000	-8.235000	1272.032959	23.178749	-4.156250	3.696875
-24.339001	11.102000	1251.292969	20.623751	-5.372500	2.436875
-86.315002	-13.542000	1315.464966	9.874375	-35.818127	4.808125
3.050000	3.904000	1277.706055	7.835625	0.428750	4.633125
-6.161000	-7.503000	1264.957031	1.076250	-7.227500	3.994375
-22.264999	-6.466000	1240.618042	-0.726250	16.730000	6.050625
0.427000	-12.261000	1194.441040	-10.745000	-0.043750	-0.179375
9.333000	-10.248000	1134.416992	-22.645000	22.496250	-5.985000
-27.755001	-53.253002	1093.181030	-30.323126	33.875626	-8.680000
1.281000	-51.423000	1021.872009	-25.974375	10.968125	-11.326875
-20.252001	-68.807999	1014.918030	-11.278750	15.155000	-1.163750
-25.193001	-76.250000	1004.487000	-2.021250	7.590625	3.893750
-26.718000	-56.913002	975.755981	4.646250	-2.471875	8.225000
-14.579000	-74.359001	999.729004	3.101875	-3.780000	8.938125
-35.014000	-63.318001	1016.992004	1.155000	-4.921875	3.828125
-25.437000	-53.131001	1008.147034	2.292500	-5.993750	2.756250
-21.716000	-61.792999	1008.817993	2.038750	3.465000	-1.207500
-19.276001	-49.653999	1009.611023	-6.076875	-3.504375	-4.405625
-15.677000	-57.035000	999.484985	-9.178750	9.174375	-6.518750
-6.710000	-72.834000	1009.976990	-8.841875	-6.164375	-5.831875
-19.520000	-96.196999	1011.197021	-5.236875	7.743750	-2.935625
-36.660999	-115.778000	1007.720032	-0.459375	3.543750	-3.845625
-24.278000	-98.881004	1007.415039	-0.573125	-1.491875	-3.985625
-36.050999	-100.162003	1011.867981	-1.561875	1.907500	0.262500
-24.583000	-73.626999	1028.947998	-7.940625	2.056250	5.578125
-23.180000	-89.914001	1034.193970	-12.040000	6.111875	8.001875
-22.875000	-104.005005	1020.346985	-9.646875	4.593750	2.804375
-24.521999	-85.583000	1018.578003	-7.608125	-1.417500	-1.684375
-48.250999	-100.955002	1023.092041	-3.762500	6.492500	-4.392500
-48.312000	-108.519005	997.289001	1.841875	1.413125	-6.260625
-66.184998	-113.216003	1003.816040	9.856875	5.355000	-4.576250
-48.068001	-124.988998	1149.911011	14.914375	1.675625	-0.542500
-121.634003	-98.392998	1309.243042	14.463750	5.096875	3.797500
-99.002998	-83.936005	1373.232056	22.623125	-19.026875	12.101250
-107.299004	-72.651001	1413.308960	-0.140000	-25.541250	4.523750
-86.986000	-98.209999	1322.968018	-2.135000	-40.306873	-3.268125
-21.167000	-86.132004	1146.617065	-9.498125	-51.520000	-5.998125
21.777000	-24.095001	1086.776001	9.231250	-74.598122	-12.210625
132.369995	-72.041000	1000.338989	-18.663750	1.220625	0.459375
104.066002	-58.560001	895.479980	-16.309999	-8.942500	7.993125
158.477997	-128.953995	859.184998	-10.355625	16.178749	16.598749
108.335999	-82.594002	810.445984	-4.904375	50.089375	7.529375
94.611000	-80.093002	831.613037	1.750000	41.072498	2.191875
40.382000	-103.211998	796.903992	-0.555625	64.644997	-11.178125
35.990002	-95.098999	865.651001	-3.924375	35.796249	-9.734375
8.540000	-121.207001	860.283020	-14.367500	33.626251	-1.535625
-39.161999	-102.358002	859.062988	-8.719375	39.322498	-2.747500
-44.103001	-138.958008	875.960022	-7.153125	26.801250	0.450625
-74.664001	-102.480003	798.612000	7.498750	34.063751	-5.932500
-80.215004	-72.711998	768.294983	4.895625	9.012500	1.360625
-73.626999	-90.402000	756.033997	6.759375	-8.382500	7.783125
-79.788002	-82.654999	809.104004	10.701250	-24.246250	-0.293125
-32.025002	-73.931999	845.093994	0.581875	-14.131250	2.143750
-108.214005	-101.992004	774.639038	-6.151250	-15.404375	6.956250
-24.705000	-104.431999	819.901001	-2.296875	-24.272499	-1.960000
-39.955002	-105.652000	794.768982	-10.189375	-20.160000	-4.506250
7.564000	-131.333008	807.213013	-7.144375	10.346875	-13.965000
-43.859001	-77.714005	811.604980	-5.687500	18.200001	-21.931875
-64.721001	-143.167007	834.906982	-25.226250	-14.756875	-16.563749
-10.919000	-151.158005	1049.322021	-52.893749	-15.911875	-3.093125
-121.756004	-270.412994	1109.223999	-43.176876	18.335625	-9.178750
-69.905998	-218.563004	1207.494995	-14.437500	9.156875	-4.453750
-191.662003	-313.783997	1298.873047	35.586250	32.011875	3.171875
-102.723999	-233.507996	1252.756958	52.736252	-0.958125	9.817500
-153.537003	-212.402008	1226.770996	27.387501	-20.041876	2.003750
-92.354004	-140.421997	1205.482056	41.886250	-7.035000	7.266875
-75.701004	-107.360001	1252.817993	20.405001	-12.101250	5.490625
-77.835999	-104.371002	1229.150024	12.823125	-10.548125	7.529375
-51.545002	-83.021004	1112.030029	6.645625	-4.130000	11.694375
-58.072002	-98.332001	1029.924072	6.400625	5.302500	10.517500
-49.776001	-76.250000	979.965027	10.780000	3.386250	6.125000
-52.826000	-81.008003	1000.338989	4.930625	-4.445000	2.843750
-53.985001	-76.311005	1014.247009	2.065000	-0.756875	2.878750
-40.504002	-61.366001	1004.304016	5.683125	-0.962500	1.592500
-33.977001	-51.423000	1027.849976	5.210625	-2.209375	2.310000
-29.036001	-37.027000	1014.307983	6.199375	3.885000	1.225000
-30.805000	-33.000999	1000.949036	7.568750	-3.631250	1.426250
-30.866001	-34.892002	997.106018	7.074375	-2.852500	2.051875
-38.247002	-33.062000	1004.975037	1.780625	-2.100000	1.868125
-35.990002	-43.920002	1009.976990	-2.003750	-3.740625	0.306250
-45.079002	-28.243000	1027.239990	3.198125	1.461250	0.503125
-37.942001	-27.389000	1012.173035	4.930625	0.310625	0.560000
-35.624001	-26.962000	1022.786987	-0.476875	1.977500	0.551250
-35.746002	-38.796001	1015.710999	-5.341875	5.215000	-0.122500
-25.925001	-35.563000	998.325989	-4.510625	1.470000	-0.835625
-44.469002	-41.114002	1023.824036	-0.857500	4.423125	-0.984375
-34.038002	-40.443001	1057.984009	-0.210000	-1.649375	-0.678125
-59.779999	-53.680000	1199.198975	2.353750	-5.613125	1.846250
-85.705002	-63.195999	1296.921021	3.416875	-1.701875	1.439375
-99.307999	-68.320000	1360.239014	5.775000	-7.293125	2.296875
-92.903000	-90.829002	1282.708008	-12.438125	-14.350000	-4.016250
-113.399002	-79.422005	1230.125977	-11.869375	-10.228750	-10.084375
-57.157001	-52.887001	1212.802002	-25.786249	-12.849375	-15.470000
-27.572001	-105.652000	1182.057983	-29.605625	-23.804375	-11.672500
13.176001	-78.690002	1146.739014	-25.584999	-22.299376	-6.466250
48.494999	-92.475998	982.405029	-31.325001	2.935625	6.816250
34.403999	-95.403999	870.835999	-14.581875	33.293751	7.721875
48.617001	-92.903000	900.116028	-16.301250	30.043125	7.503125
26.169001	-96.563004	692.289001	-16.896250	14.481250	10.171875
23.180000	-141.947006	801.234985	-12.215000	26.250000	8.281875
-11.834001	-149.999008	780.556030	-7.857500	44.406250	2.121875
-47.885002	-108.153000	749.567993	7.673750	48.208126	3.040625
-35.319000	-158.966003	789.035034	23.126249	38.027500	7.266875
-78.933998	-97.599998	715.835022	28.214375	42.236252	8.150625
-100.100998	-83.142998	652.212036	25.707500	-3.119375	17.832500
-68.259003	-87.351997	670.328979	13.103125	4.961250	14.704375
-112.728004	-81.434998	711.809021	-2.244375	-11.865000	3.596250
-90.279999	-101.808998	762.744019	-12.232500	0.586250	-4.265625
-98.697998	-114.680000	805.627014	-17.906876	3.342500	-4.156250
-82.044998	-97.722000	760.609009	-10.968125	-3.456250	0.122500
-91.256004	-131.759995	875.898987	-6.470625	-0.555625	-4.370625
-90.279999	-135.908005	835.700012	10.508750	-30.594376	-3.303125
-43.126999	-123.098000	937.997009	13.238750	-49.818127	-13.146875
-28.121000	-57.706001	990.822998	26.656876	-24.368750	-1.448125
-89.059998	-66.612000	1009.184021	27.216875	-27.895000	-2.008125
-54.595001	-63.744999	1082.445068	40.735626	10.167500	-4.996250
-67.527000	21.472000	1143.932983	34.339375	-31.101875	10.539375
-70.577003	-2.257000	1236.592041	26.455626	-35.161877	14.774375
-34.098999	43.005001	1286.978027	20.781250	-18.029375	11.169375
-58.194000	44.164001	1353.346069	-2.800000	-1.430625	11.060000
-38.125000	8.418000	1379.270996	-11.480000	-14.630000	1.378125
-58.132999	-13.969000	1363.289062	-14.319375	-6.278125	1.225000
-11.285000	-26.352001	1205.786987	-25.646250	-1.010625	-5.521250
-8.235000	-53.253002	1058.105957	-21.091875	1.767500	-8.316875
-5.063000	-56.303001	998.143005	-19.162500	6.116250	-11.375000
27.084000	-59.719002	962.580017	-12.359375	-7.411250	-11.720625
33.549999	-54.290001	1012.905029	-7.380625	3.456250	-6.448750
27.205999	-71.003998	1024.433960	-3.416875	-0.008750	-3.106250
31.476000	-52.826000	1000.765991	5.153750	9.550625	0.717500
14.152000	-58.499001	1020.346985	7.406875	4.357500	2.117500
13.969000	-57.157001	1013.088013	8.561875	4.830000	2.078125
17.690001	-40.687000	1008.452026	9.887500	2.117500	2.681875
10.370000	-29.402000	1017.968018	11.663750	-1.920625	4.816875
14.640000	-29.889999	1005.950989	8.334375	1.133125	4.760000
28.487000	-25.986000	995.885986	4.856250	2.143750	4.230625
24.217001	-14.274000	1002.473999	2.843750	2.100000	3.696875
26.047001	-19.153999	998.447998	3.053750	0.538125	2.721250
11.712000	-19.398001	972.218018	0.861875	-3.626875	0.004375
16.714001	-24.644001	995.947021	-2.782500	-1.780625	-3.106250
15.372000	-28.487000	1060.667969	-4.646250	3.504375	-3.679375
-27.145000	-33.367001	1193.221069	-5.950000	-1.211875	-1.850625
-33.062000	-34.221001	1198.467041	-3.198125	11.060000	-1.793750
-43.371002	-34.647999	1264.591064	5.031250	8.706250	2.121875
-65.879997	-62.098000	1441.613037	5.481875	-3.316250	0.100625
-36.539001	-53.131001	1430.206055	3.740625	-11.497500	-4.326875
-5.551000	-57.401001	1369.633057	-4.326875	-37.970627	-15.789375
66.917000	-45.383999	1271.118042	-9.668750	-52.460625	-19.600000
137.615997	-39.589001	1099.769043	-23.209375	-10.517500	-19.123125
84.667999	0.671000	958.798035	-30.314375	26.411875	-12.871250
44.896000	-21.837999	834.906982	-32.641876	35.573124	-1.417500
59.292000	-33.793999	829.356018	-25.357500	24.373125	4.803750
66.856003	-77.470001	794.952026	-9.835000	9.515625	13.860000
61.000000	-76.982002	820.023010	-0.778750	18.239374	16.174376
-5.185000	-88.084000	675.697021	9.196250	63.861874	14.428750
-32.513000	-63.989002	582.244995	20.890625	67.803749	8.566250
-48.373001	-55.083000	580.171021	23.918125	57.964375	9.423750
-30.743999	-30.866001	671.854004	11.755625	15.776250	19.508125
-16.469999	-38.979000	692.838013	17.176250	17.421249	13.216875
-75.639999	-18.788000	738.343994	9.900625	9.231250	4.200000
-118.278999	-17.812000	763.598022	6.575625	9.493750	7.345625
-92.232002	-30.683001	756.705017	0.096250	-13.711250	8.732500
-130.173996	-81.923004	796.660034	-23.817499	-6.833750	1.019375
-106.445000	-18.177999	908.411987	-17.058125	-22.645000	-11.821250
-104.493004	-49.837002	947.817993	-0.227500	-58.699375	-11.016250
-74.419998	-58.438000	968.802002	3.867500	-28.455000	-17.596251
-80.398003	-23.607000	1025.471069	26.201876	-14.962500	-4.353125
-73.016998	-24.521999	1091.473022	20.934376	-37.244373	4.213125
-51.667000	-5.185000	1084.885010	17.473749	-31.784374	0.507500
-14.762000	-29.524000	1182.607056	25.956875	-18.891251	-5.906250
-14.823000	34.526001	1230.065063	47.634998	-7.520625	-1.338750
-21.960001	87.596001	1415.810059	25.410000	5.617500	2.139375
-30.012001	84.850998	1351.515991	12.267500	-15.715000	4.379375
-15.250000	64.233002	1265.201050	7.441875	0.717500	8.614375
-21.106001	60.817001	1221.098022	4.287500	-9.126250	7.511875
4.575000	61.732002	1130.452026	-8.128750	0.831250	1.220625
12.322001	73.261002	1044.503052	-15.815625	6.431250	-1.575000
3.782000	46.848000	1037.975952	-28.170626	5.586875	-5.184375
7.930000	34.038002	1000.400024	-25.878124	2.874375	-4.860625
2.562000	26.047001	1003.937988	-20.868750	11.125625	-0.861875
1.952000	-5.978000	1003.023010	-19.473125	11.948125	0.503125
5.978000	-14.945000	1008.147034	-6.995625	6.365625	2.196250
14.701000	-9.821000	983.502991	0.468125	7.446250	1.968750
17.934000	-2.989000	991.250000	14.481250	-9.305625	0.787500
16.042999	9.272000	992.286987	20.024376	-13.549375	-3.198125
12.017000	47.519001	1010.892029	8.168125	-5.446875	-3.513125
11.163000	32.939999	1024.190063	-0.905625	1.168125	-0.931875
16.775000	28.731001	993.872986	-4.020625	-3.189375	-0.997500
10.736000	11.346000	1000.095032	-5.639375	-2.712500	-0.367500
10.919000	1.464000	981.002014	-3.058125	-1.566250	-2.200625
19.276001	6.466000	944.463013	2.226875	-8.036875	-3.749375
32.330002	6.710000	960.384033	-3.823750	-10.329375	-4.554375
45.262001	25.315001	1110.932007	-3.255000	-16.795626	-1.325625
5.551000	-3.782000	1433.378052	-13.199375	-12.901875	0.918750
-26.779001	-56.364002	1613.083984	-3.224375	9.633750	2.450000
-46.542999	-48.861000	1468.391968	5.980625	17.915625	-6.291250
-42.821999	28.059999	1417.151978	18.370625	34.186249	-8.435000
-35.929001	33.855000	1272.947998	8.080625	6.807500	-10.911250
24.948999	44.285999	1075.430054	-4.541250	-20.247499	-11.886875
36.844002	21.960001	890.294983	-30.428125	1.076250	-4.729375
28.365000	15.738000	777.872009	-30.673124	-8.229375	5.153750
3.721000	-25.864000	742.247986	-22.216249	-3.311875	8.618750
63.379002	-43.188000	850.645020	-17.696875	26.254375	8.640625
