A_X[mg]	A_Y[mg]	A_Z[mg]	G_X[dps]	G_Y[dps]	G_Z[dps]	
-3.599000	-25.925001	1002.230042	0.966875	-0.196875	-0.953750
-213.561005	-43.249001	983.747009	8.452500	12.123125	2.415000
-181.414001	55.815002	945.804993	15.566250	-10.329375	8.653750
-185.195999	-42.882999	1049.687988	8.540000	-0.603750	13.925625
-194.041000	7.137000	1007.903015	-1.115625	3.351250	5.079375
-163.723999	-5.978000	954.710999	-0.266875	-1.955625	-2.121875
-200.994995	100.650002	994.726990	-8.133125	-9.069375	-6.610625
-180.132996	1.891000	1002.046997	-9.625000	-3.390625	-2.983750
-186.233002	-24.217001	944.218994	-17.373125	1.395625	-11.375000
-196.725006	83.204002	869.127991	3.539375	-14.350000	-3.867500
-184.098007	-32.390999	1050.664062	11.725000	-0.643125	13.269375
-147.925003	-26.169001	1016.504028	-4.987500	-5.455625	16.183125
-145.119003	-38.247002	1014.186035	4.816875	6.671875	14.883750
-179.462006	-27.938000	987.895020	6.693750	1.365000	8.824375
-179.462006	3.416000	1017.968018	-4.392500	6.243125	2.681875
-151.645996	-26.840000	941.718018	-14.774375	5.044375	3.495625
-182.634003	-27.938000	986.492004	-11.515000	6.636875	-1.605625
-206.119003	-25.193001	960.322998	-5.464375	2.506875	-5.460000
-185.501007	-32.513000	977.708008	3.014375	-4.637500	-8.159375
-176.960999	1.159000	977.585999	9.603125	-7.791875	-7.975625
-172.081009	-7.869000	972.583984	7.809375	-9.800000	-2.931250
-147.193008	-1.891000	1012.173035	6.903750	-7.000000	-0.380625
-169.031006	-2.684000	976.976013	6.339375	-1.246875	1.216250
-166.469009	-0.244000	999.729004	-0.385000	-14.450625	1.802500
-152.865997	-6.527000	1004.975037	-0.975625	-9.668750	0.157500
-138.104004	-9.028000	1019.309998	-5.958750	-4.851875	-1.518125
-146.339005	-28.426001	998.387024	-5.993750	-5.661250	-1.505000
-140.238998	-12.566000	995.642029	-5.075000	-4.624375	-1.041250
-129.990997	-32.939999	983.991028	0.643125	-7.332500	-0.752500
-126.453003	-19.642000	987.163025	8.653750	-6.278125	-0.778750
-125.050003	-5.002000	1011.929016	11.396875	-6.400625	0.275625
-120.474998	-12.383000	999.729004	11.541250	-3.342500	0.157500
-119.804001	47.580002	960.567017	15.054375	-5.145000	4.725000
-104.188004	4.941000	1007.720032	17.119375	-14.350000	3.556875
-85.827003	45.567001	972.096008	20.746250	-17.460625	-1.045625
-68.442001	27.938000	1012.051025	10.955000	-9.804375	-3.937500
-55.998001	54.046001	1015.223022	11.523750	-12.980625	-6.444375
-76.127998	39.528000	1002.108032	4.742500	-7.800625	-4.847500
-63.440002	47.885002	1012.112000	0.651875	-1.452500	-6.160000
-66.489998	39.101002	1022.177002	-2.716875	-2.463125	-8.063125
-56.913002	27.632999	998.143005	-7.240625	-2.633750	-14.809375
-72.711998	65.941002	995.153992	-7.931875	-5.285000	-9.651250
-74.419998	27.023001	975.268005	-5.823125	0.179375	-3.513125
-92.232002	47.275002	1005.036011	-6.549375	0.945000	-1.863750
-69.235001	18.300001	1024.494995	-2.913750	3.609375	0.638750
-62.525002	8.967000	989.541992	-5.083750	-0.017500	-0.844375
-74.847000	23.424000	998.020996	-3.972500	-11.335625	2.712500
-50.202999	3.904000	958.005005	-4.095000	-9.690625	0.914375
-28.609001	0.122000	1039.744995	-5.775000	-8.649375	2.371250
-41.723999	19.337000	1016.931030	2.673125	-7.595000	3.784375
-44.896000	13.725000	1032.485962	13.645625	-8.684375	5.901875
-45.993999	10.004000	993.507019	27.527500	2.839375	3.386250
-42.517002	77.775002	1009.549988	27.527500	-5.525625	3.469375
-26.108000	65.331001	1061.217041	28.236250	-5.525625	3.469375
-26.108000	78.323997	920.978027	22.850624	-4.073125	4.882500
22.936001	78.323997	920.978027	-6.702500	-28.310625	7.595000
39.040001	91.865997	1037.182983	-15.106875	-10.456250	6.825000
-20.862000	59.902000	992.958008	-29.715000	-9.423750	7.021875
-18.544001	-8.723001	985.699036	-25.746876	2.016875	6.549375
-32.208000	23.790001	1005.218994	-26.551874	2.485000	6.549375
-46.726002	-40.015999	955.626038	-27.650000	-4.169375	9.716875
25.132000	-28.426001	1016.138000	-27.238750	-19.473125	6.370000
3.111000	-113.277000	1092.388062	-32.431873	-10.740625	6.234375
16.348000	-78.018997	959.957031	-13.724375	7.376250	1.758750
-1.098000	-79.788002	997.044983	0.656250	14.503125	0.245000
6.527000	-56.913002	1030.167969	0.879375	7.463750	4.865000
-5.551000	-57.950001	1004.609009	3.438750	2.804375	5.149375
8.174000	-59.292000	991.616028	17.500000	-0.875000	4.606875
-6.588000	-36.417000	990.640015	10.618125	-20.116249	7.323750
35.380001	-85.888000	981.916992	-2.874375	-33.709373	10.920000
-7.747000	-52.033001	984.601013	-11.501875	12.241250	3.587500
38.674000	-122.792999	1071.464966	-5.665625	13.531875	-5.928125
24.156000	-69.357002	958.676025	0.411250	-4.256875	-13.851250
-6.588000	174.216003	960.262024	8.570625	9.555000	-0.551250
-35.990002	28.975000	948.244995	12.315625	43.373749	31.447500
-81.739998	-182.085007	1013.027039	8.150625	46.462502	36.645000
-37.820000	-31.598000	985.455017	-0.595000	29.610001	15.535625
-23.912001	-77.835999	984.906006	-7.420000	46.711876	6.553750
-135.298004	-76.494003	1083.786987	-9.856875	13.593125	-0.590625
-147.193008	-56.669003	977.342041	-12.127500	-7.993125	-9.349375
-120.779999	-36.173000	965.080994	-6.041875	-3.443125	-11.151875
-112.423004	-106.932999	988.505005	-9.721250	0.087500	-7.310625
-105.712997	-62.708000	987.223999	-3.189375	4.125625	-0.791875
-97.173004	-175.923996	993.629028	-7.179375	22.631874	-3.106250
-115.534004	-15.433001	965.691040	-4.235000	0.590625	-11.528125
-101.260002	-115.107002	964.776001	3.325000	2.200625	-9.870000
-146.643997	-51.484001	939.583008	-10.605000	15.868125	-9.506875
-133.834000	-81.129997	1044.686035	-2.261875	24.959375	-0.621250
-195.688004	-70.638000	1132.648071	20.978125	-18.545626	1.478750
-85.278000	-117.120003	1007.963989	33.433750	-58.699375	0.630000
-67.771004	-69.540001	1068.475952	20.409374	-50.308125	-4.445000
-14.213000	-31.659000	970.327026	13.348125	-40.534374	-6.221250
-21.045000	-10.675000	929.213013	10.937500	-32.173752	-1.198750
-8.784000	-44.774002	1030.229004	-1.456875	-5.530000	1.933750
18.300001	-41.541000	970.265991	-10.377500	-8.106875	2.327500
-12.566000	-38.735001	1035.109009	-4.991875	-10.548125	1.820000
-1.830000	-45.688999	1003.937988	-0.538125	-13.199375	2.305625
31.354000	-41.297001	989.908020	-7.529375	-17.631250	3.863125
7.869000	-56.242001	962.397034	-7.805000	-13.068125	4.580625
28.731001	-82.044998	1011.929016	1.509375	-17.010000	3.928750
104.798004	-44.225002	941.535034	2.113125	-2.038750	1.019375
-20.252001	-60.268002	1035.657959	8.421875	-5.096875	3.749375
48.983002	-61.732002	1030.350952	0.415625	-1.286250	2.423750
50.142002	-45.993999	1019.614990	12.910625	9.275000	4.165000
18.666000	-70.698997	1028.399048	13.453125	6.628125	1.627500
28.365000	-21.594000	969.717041	10.434375	9.458750	-3.062500
3.843000	-38.674000	1014.918030	11.834375	8.338750	-2.463125
2.440000	-7.076000	940.803040	10.941875	9.765000	-9.821875
55.693001	-35.319000	1003.937988	5.678750	1.106875	-0.472500
-23.424000	5.551000	998.447998	4.593750	5.315625	-4.773125
64.416000	-21.289000	1040.171997	1.470000	-2.961875	-7.914375
8.967000	3.355000	990.640015	-4.751250	-5.696250	-4.414375
10.492001	-17.323999	1028.032959	2.642500	-0.122500	-4.353125
21.716000	-31.964001	998.570007	-1.098125	7.879375	-2.069375
24.948999	-9.089000	1007.781006	2.034375	9.485000	-3.123750
31.293001	-31.049000	970.937012	0.721875	6.024375	-1.045625
10.736000	-28.609001	934.458984	-10.180625	8.299375	-1.343125
-23.668001	-9.821000	1049.383057	-9.725625	6.317500	-0.511875
-2.867000	-48.617001	999.911987	-8.067500	1.601250	-0.328125
-16.958000	-66.978004	993.507019	-4.410000	6.566875	-1.347500
-23.363001	-41.602001	1036.390015	-0.113750	8.903125	-2.760625
-38.063999	-45.262001	1003.205994	8.054375	5.709375	-1.964375
-29.829000	-38.125000	1024.494995	8.146250	4.707500	-0.656250
-22.509001	-35.196999	978.684021	11.996250	7.271250	-1.023750
-12.749001	-10.797000	995.276001	15.386875	6.361250	-1.680000
-46.604000	5.978000	1035.718994	14.621250	5.460000	0.363125
-37.027000	-6.039000	984.661987	3.215625	0.218750	0.455000
-49.959000	-13.481000	991.189026	-0.297500	-0.590625	-1.360625
-28.365000	-11.590000	989.541992	-2.292500	-0.472500	-2.913750
-43.310001	-7.015000	1010.708984	-0.848750	-1.911875	-2.524375
-45.383999	-18.971001	991.616028	0.293125	0.673750	-1.811250
-38.612999	-11.041000	1021.384033	2.686250	-0.214375	-1.535625
-38.063999	-2.867000	1016.992004	-1.837500	0.621250	-0.962500
-32.146999	-10.309000	1007.293030	-5.639375	3.416875	-1.561875
-47.702000	-24.400000	993.080017	-1.929375	6.094375	-1.220625
-53.862999	-25.742001	999.484985	1.662500	8.386875	-0.717500
-46.542999	-16.653000	980.270020	7.511875	-0.962500	-0.476875
-43.737000	-16.714001	994.056030	9.922500	2.506875	-0.581875
-50.325001	0.122000	995.031982	6.160000	0.481250	-0.533750
-59.109001	0.488000	983.015015	0.945000	-0.485625	-0.665000
-57.340000	0.122000	1007.903015	-1.863750	2.856875	-2.047500
-67.282997	8.967000	1014.856995	-3.202500	1.176875	-2.187500
-53.558002	-4.026000	1000.278015	-0.643125	0.468125	-2.471875
-56.852001	2.623000	981.612000	0.354375	1.833125	-2.257500
-66.184998	-15.006001	1009.671997	2.056250	4.195625	-2.091250
-57.157001	-11.407001	984.113037	2.795625	-2.283750	-1.999375
-60.633999	-6.161000	1012.356018	0.980000	1.505000	-0.831250
-71.065002	-14.335000	1012.600037	-2.406250	1.023750	0.205625
-60.512001	-16.836000	989.481018	-1.636250	-1.701875	-0.105000
-57.401001	-8.357000	1001.376038	-0.875000	0.608125	-0.476875
-65.453003	-17.629000	1002.108032	-6.041875	1.325625	-0.035000
-69.295998	-21.106001	1002.351990	-0.271250	4.401250	0.249375
-65.696999	-17.873001	1001.497986	8.181250	2.541875	-0.161875
-74.847000	-8.479000	1003.328003	8.330000	1.150625	-0.560000
-68.259003	-3.965000	990.030029	3.714375	-0.188125	-1.548750
-62.037003	-5.368000	981.673035	0.809375	-2.318750	-2.747500
-57.767002	-9.150001	1007.598022	-0.415625	-7.905625	-2.594375
-60.268002	-30.195000	1008.330017	-5.718125	-22.820000	-2.314375
-42.517002	-39.223000	966.666992	-13.020000	-10.469375	-4.773125
-32.757000	-16.042999	1034.133057	-8.811250	3.119375	-6.177500
-42.639000	-11.285000	1014.918030	-2.047500	-3.154375	-2.524375
-43.431999	-25.742001	976.427002	1.273125	-6.510000	-0.078750
-38.125000	-20.923000	1000.095032	6.006875	-1.583750	-0.402500
-28.487000	-23.180000	1030.777954	5.324375	2.336250	-0.984375
-36.904999	-21.837999	996.252014	4.917500	-1.400000	-1.260000
-26.840000	-16.775000	1032.912964	1.732500	-2.620625	-0.665000
-20.557001	-28.243000	1001.254028	-4.672500	-5.726875	1.277500
-17.019001	-34.587002	995.093018	-9.415000	-0.529375	1.303750
-29.219000	-38.552002	1003.510986	-6.912500	-5.005000	0.367500
-12.322001	-46.542999	996.557007	-2.979375	-6.426875	-1.058750
-14.762000	-9.943000	1080.493042	10.338125	-1.618750	-0.446250
-12.810000	-25.864000	1032.242065	23.944374	-13.300000	2.585625
-27.084000	-37.514999	893.406006	18.112499	-12.486250	1.435000
1.464000	2.013000	996.739990	19.901875	11.773125	-2.353750
2.196000	13.542000	1011.014038	13.002500	10.180625	-4.681250
-17.323999	17.873001	1006.866028	4.878125	6.571250	-2.983750
-25.559000	22.875000	994.361023	0.131250	9.585625	-2.025625
-47.153000	28.121000	1001.803040	0.245000	8.758750	-1.955625
-41.541000	13.542000	1014.796021	-1.277500	7.888125	-1.610000
-36.417000	14.762000	1027.972046	0.441875	11.016250	-2.191875
-63.867001	7.869000	982.832031	1.973125	8.780625	-2.423750
-58.255001	12.993000	992.165039	4.825625	6.877500	-1.981875
-55.570999	29.402000	979.721008	5.670000	5.254375	-2.209375
-51.056999	33.489002	981.002014	7.122500	4.042500	-1.955625
-54.290001	36.295002	1020.346985	0.306250	0.665000	-0.148750
-60.573002	18.422001	1002.351990	-3.871875	-1.295000	1.001875
-65.514000	16.958000	1012.294983	-4.716250	1.911875	0.848750
-69.540001	15.494000	987.651001	-4.716250	1.911875	0.323750
-69.540001	14.884000	1006.439026	-1.855000	-0.568750	0.323750
-68.442001	14.884000	1006.439026	0.061250	0.297500	-0.581875
-65.696999	22.753000	1005.402039	-1.295000	-0.236250	-0.214375
-63.806000	14.213000	1007.476013	-1.610000	0.030625	-0.218750
-63.928001	27.328001	995.337036	-1.316875	-1.540000	0.280000
-66.856003	8.662000	1001.192993	0.424375	-0.468125	0.140000
-60.329002	19.520000	1011.746033	1.776250	0.958125	-0.993125
-61.366001	16.226000	1009.549988	3.259375	-0.568750	-0.625625
-67.161003	18.483000	990.762024	2.139375	-2.883125	-0.424375
-65.879997	11.773000	1002.596008	2.988125	-3.084375	-0.345625
-58.011002	4.697000	982.221985	-0.533750	-4.655000	-0.634375
-46.604000	10.675000	1020.957031	-2.830625	-7.083125	-1.277500
-52.338001	5.795000	987.590027	-1.811250	-3.508750	-1.312500
-47.640999	9.455000	999.302002	-2.633750	-3.276875	-0.721875
-54.107002	7.564000	1005.585022	0.433125	-1.242500	-0.021875
-51.484001	6.222000	999.973022	-0.980000	-1.456875	-0.030625
-39.040001	9.333000	1005.585022	-2.375625	-3.521875	-0.826875
-45.079002	1.647000	1002.596008	-1.728125	-0.043750	-0.958125
-45.872002	4.331000	997.471985	-0.761250	-1.391250	-1.080625
-38.368999	7.137000	1005.096985	0.179375	-0.175000	-1.330000
-58.926003	0.305000	987.590027	-0.428750	0.555625	-1.211875
-35.319000	-6.893000	1005.463013	-2.021250	-1.216250	-1.093750
-45.811001	3.538000	1021.384033	-2.918125	-0.231875	-1.141875
-39.711002	-5.673000	987.223999	0.310625	-0.336875	-0.450625
-50.813000	-3.538000	1004.669983	5.341875	0.590625	-0.476875
-46.421001	1.769000	995.580994	3.911250	1.526875	-0.787500
-40.931000	3.782000	994.178040	1.496250	-0.389375	-0.774375
-35.563000	-5.795000	1001.559021	-3.740625	-0.748125	-0.358750
-45.932999	-5.612000	1008.268982	-4.768750	0.503125	-0.415625
-47.458000	-6.100000	1010.526001	-2.397500	-1.076250	-0.258125
-50.507999	-4.392000	1011.502014	1.321250	-0.227500	-0.476875
-41.297001	-8.174000	1005.707031	4.900000	0.940625	-0.704375
-41.602001	-1.769000	1001.864014	5.101250	0.035000	-0.686875
-47.763000	-0.488000	992.286987	2.257500	-0.560000	-0.962500
-43.249001	-4.636000	989.176025	-0.940625	-0.363125	-1.089375
-48.617001	-1.647000	1006.866028	-1.688750	-0.363125	-1.229375
-40.564999	-4.148000	1006.134033	0.420000	-1.443750	-1.295000
-51.423000	-4.392000	1014.125000	1.806875	-1.128750	-0.468125
-38.063999	-2.318000	1003.755005	0.415625	-2.139375	-1.028125
-46.542999	-7.198000	981.673035	-1.330000	-2.126250	-0.813750
-39.589001	-5.246000	999.606995	-3.045000	-1.846250	-0.420000
-21.472000	-16.042999	970.265991	-8.601250	-18.598125	0.166250
-30.316999	-23.485001	962.153015	-19.188749	-26.096874	1.500625
13.420000	-12.932000	1031.937012	-10.591875	-22.553125	2.296875
24.644001	-43.554001	1066.951050	0.218750	-30.489374	2.121875
44.591000	-44.529999	1044.503052	8.128750	-20.868750	2.043125
53.862999	-18.971001	1023.580017	11.676875	-20.164375	2.038750
84.057999	-28.365000	995.947021	3.469375	-23.506874	2.436875
93.269005	-17.568001	986.431030	4.956875	0.748125	0.498750
81.069000	-22.448000	1011.989990	14.603750	6.199375	-0.494375
46.482002	0.915000	991.311035	20.208124	16.415001	-2.734375
42.456001	25.193001	969.717041	25.322500	31.600624	-4.580625
-24.034000	31.415001	1035.109009	27.523125	24.622499	-4.313750
-68.442001	85.217003	953.186035	21.148750	25.628750	-16.533125
40.748001	61.915001	1044.930054	19.123125	26.740000	-16.533125
-52.704002	68.381004	987.041016	14.533750	7.437500	-11.571875
14.213000	50.996002	977.403015	7.503125	7.271250	-13.090000
10.248000	52.216000	1053.104004	-2.506875	-1.631875	-3.500000
-15.677000	57.522999	1020.164001	-19.140625	0.791875	-2.480625
-32.818001	49.105000	972.583984	-27.553749	-0.398125	-0.870625
-43.126999	27.145000	986.369995	-22.308125	10.438750	-0.144375
-46.970001	23.546000	1011.441040	-8.920625	18.598125	0.052500
-74.847000	7.808000	998.630981	-3.145625	33.276249	-0.765625
-108.092003	13.603000	950.257996	3.075625	32.046875	-2.695000
-129.137009	22.875000	970.083008	3.049375	19.403126	-2.878750
-114.802002	25.193001	966.117981	-8.824375	2.782500	-3.574375
-102.480003	18.849001	1005.585022	-14.192500	7.148750	-3.679375
-107.237999	0.366000	1016.869995	-11.659375	5.403125	-2.926875
-124.074005	-10.309000	993.385010	-10.119375	-2.130625	-1.417500
-123.952003	-26.352001	977.585999	-7.542500	-1.295000	-0.831250
-119.376999	-25.864000	995.276001	-9.362500	-2.388750	-1.045625
-116.815002	-35.075001	1009.549988	-16.183125	-15.977500	0.630000
-106.017998	-52.459999	980.392029	-26.823126	-18.825624	1.522500
-82.289001	-66.124001	997.838013	-38.639999	-22.889999	2.003750
-69.417999	-99.186005	986.674988	-29.566250	-20.291250	3.911250
-60.573002	-122.305000	1008.757019	-14.787500	-12.158125	2.358125
-44.774002	-116.083000	1019.432007	-1.356250	-14.030625	0.918750
-21.410999	-114.557999	992.408997	1.430625	-23.695000	1.610000
-6.100000	-128.466003	981.429016	-3.473750	-23.358126	2.296875
9.272000	-125.843002	983.075989	-10.171875	-24.491249	2.804375
1.769000	-127.856003	969.046021	-18.003124	-30.038750	3.806250
20.069000	-153.658997	962.885010	-28.437500	-21.905624	4.147500
23.729000	-169.214005	1049.626953	-18.808125	-18.090626	3.521875
54.534000	-175.985001	1009.244995	1.850625	-34.133751	0.678125
90.584999	-157.807007	920.429016	9.410625	-35.599377	-0.949375
88.938004	-143.472000	1029.924072	23.826250	-14.538125	-0.450625
105.408005	-147.742004	1005.341003	29.706249	-10.933125	-1.465625
138.348007	-133.468002	942.937988	24.871876	-9.218125	-3.307500
116.327003	-105.774002	1071.221069	20.759375	0.293125	-3.810625
111.630005	-80.946999	1006.134033	33.328751	12.416250	-3.093125
101.077003	-84.667999	1020.773987	23.865625	14.949375	-3.723125
87.351997	-59.475002	1041.697021	11.375000	15.439375	-6.304375
103.090004	-42.334000	972.035034	10.933125	26.468750	-7.363125
52.582001	-44.408001	1037.061035	3.933125	24.674999	-5.005000
39.528000	-41.297001	1014.002991	6.921250	17.959375	-3.784375
45.567001	-31.049000	1004.853027	12.376875	14.910000	-2.633750
-8.235000	-7.015000	979.965027	24.263750	13.426875	-4.130000
33.793999	-16.165001	917.684021	24.495625	-4.830000	-2.673125
7.625000	22.997000	1016.931030	23.065001	-4.913125	0.122500
54.778000	27.389000	976.671021	11.462500	0.441875	-0.511875
7.320000	29.402000	953.002991	22.903126	-4.103750	2.423750
29.341000	59.658001	1090.924072	29.220625	9.349375	-0.402500
128.893005	4.697000	1020.713013	0.271250	0.319375	7.485625
-8.662000	27.999001	943.304016	2.016875	2.143750	12.503750
15.433001	52.521000	970.876038	10.574375	16.008125	4.462500
-114.070000	138.165009	980.575012	14.595000	21.323750	-1.413125
45.567001	76.860001	919.026001	9.025625	7.796250	-11.733750
4.453000	80.703003	1023.945984	16.708124	-3.285625	-1.028125
11.041000	89.974998	1012.051025	23.121876	-3.338125	-1.041250
10.370000	116.144005	1013.088013	11.519375	-0.783125	-0.568750
-11.651000	102.723999	1046.942993	7.800625	5.831875	3.106250
-23.973000	148.718002	1002.962036	-5.188750	6.146875	0.835625
-21.472000	124.623001	989.176025	-0.560000	8.128750	1.216250
-38.063999	126.819000	1020.895996	4.567500	9.747500	-1.461250
-42.212002	128.710007	952.759033	4.173750	14.052500	-4.178125
-33.611000	95.281998	956.541016	11.536875	11.335625	-5.298125
-75.945000	95.160004	1037.182983	-2.625000	18.948126	-5.521250
-29.158001	79.910004	904.447021	-9.690625	17.718750	-5.565000
-126.514000	110.898003	944.463013	-9.690625	17.718750	-3.473750
-88.876999	96.501999	1090.497070	-4.523750	15.881250	-3.473750
-88.876999	96.501999	1001.437012	-31.254999	21.258125	-5.971875
-78.873001	73.139000	1001.437012	-58.279373	12.503750	-4.803750
-111.630005	13.298000	965.507996	-58.887501	1.098125	-1.001875
-108.030998	-24.217001	962.580017	-34.838123	7.595000	-1.308125
-104.614998	-33.123001	992.226013	-13.405000	2.139375	-0.398125
-109.983002	-32.452000	1022.604004	2.152500	-2.117500	1.334375
-94.306000	-29.707001	948.367004	5.193125	-3.513125	2.642500
-98.576004	-34.770000	1039.317993	-0.717500	-17.574375	5.232500
-88.511002	-48.068001	966.179016	-13.133750	-22.369375	5.341875
-80.215004	-53.497002	963.434021	-26.726875	-19.980625	2.576875
-78.202003	-73.931999	1017.906982	-26.114374	-23.559376	0.923125
-41.053001	-84.362999	990.457031	-16.677500	-27.986876	-2.655625
-2.257000	-88.571999	1029.375000	-3.259375	-46.523750	-2.100000
36.295002	-87.351997	1050.603027	6.435625	-38.674999	-0.621250
47.702000	-61.854000	1038.402954	13.680625	-19.175625	-0.328125
32.695999	-74.786003	1015.588989	16.318750	-5.346250	-1.680000
29.889999	-65.819000	1032.608032	12.534375	10.495625	-3.276875
31.720001	-58.865002	1001.742004	10.692500	25.961250	-3.578750
6.161000	-53.741001	958.249023	19.219376	34.807499	-4.243750
-36.417000	-25.498001	1040.477051	22.824375	42.490002	-7.205625
-61.061001	-5.063000	1000.827026	31.482500	42.945000	-4.655000
-90.524002	3.843000	995.885986	37.029999	34.680626	-2.651250
-89.304001	43.615002	951.234009	34.474998	40.582500	-3.906875
-135.419998	66.673004	984.052002	39.147499	31.373125	-4.554375
-153.841995	89.853004	985.638000	32.025002	37.401875	-6.960625
-206.363007	116.875999	964.653992	28.376249	36.001877	-7.590625
-209.839996	119.621002	946.598022	21.056875	36.876877	-9.926875
-251.625000	154.878998	951.539001	14.021875	26.971874	-7.691250
-257.725006	147.436996	949.281982	4.843125	13.405000	-5.346250
-259.615997	144.203995	954.710999	-3.819375	8.141875	-4.816875
-261.080017	137.188995	1001.010010	-7.901250	-2.240000	-5.779375
-253.455002	88.328003	914.939026	-15.474375	-2.660000	-8.365000
-274.683014	108.030998	1000.095032	-18.322500	-10.500000	-7.498750
-263.519989	96.806999	1019.492981	-15.736875	-11.550000	-7.376250
-171.044006	22.082001	945.927002	-17.285625	-28.402500	-8.028125
-87.656998	84.545998	1019.187988	10.228750	-80.005623	17.097500
-241.926010	101.138000	1067.255981	-15.439375	-87.394997	24.495625
-156.221008	76.311005	926.101990	-32.112499	-38.215626	3.036250
-31.232000	-1.708000	992.408997	-9.883125	-36.063126	-1.592500
18.361000	-1.464000	1035.536011	-22.391251	-41.413750	6.024375
-14.152000	23.118999	936.533020	-48.763748	-53.436249	14.253750
53.131001	-55.388000	901.091980	-53.694374	-49.384998	15.378125
80.276001	-62.281002	972.156982	-68.118752	-57.006248	16.292500
110.653999	-123.952003	976.793030	-39.659374	-31.740625	8.260000
102.663002	-139.445999	1039.562012	-25.886875	-1.754375	-1.115625
96.441002	-160.369003	1057.557007	-6.724375	13.177500	-4.926250
69.845001	-148.962006	937.752991	0.000000	22.185625	-6.269375
54.656002	-150.914001	1012.356018	19.289375	46.305000	-9.008125
37.820000	-118.706001	975.572998	25.742500	48.291248	-10.793125
-1.281000	-104.066002	1008.695984	29.850624	41.330624	-7.949375
-8.235000	-100.345001	967.520996	28.616875	46.794998	-6.545000
-37.820000	-62.525002	1015.161987	25.427500	38.075626	-7.787500
-76.799004	-39.466999	1002.656982	25.926250	34.037498	-9.620625
-107.604004	-25.864000	1021.811035	31.583124	30.191875	-8.273125
-135.359009	-9.272000	982.039001	36.443748	14.914375	-4.388125
-133.468002	6.954000	975.085022	35.113750	21.857500	-3.885000
-153.354004	34.892002	973.926025	30.576876	24.132500	-5.460000
-162.443008	42.761002	925.492004	29.561874	14.336875	-7.770000
-151.645996	63.257000	980.453003	23.152500	13.374375	-10.066875
-175.009003	107.725998	992.470032	19.451250	9.139375	-9.765000
-172.203003	91.987999	986.309021	21.131250	2.095625	-6.479375
-194.041000	113.154999	1001.010010	18.781876	5.770625	-4.138750
-180.072006	124.440002	977.890991	20.510000	8.093750	-3.338125
-184.220001	135.664001	973.682007	15.408750	-2.380000	-1.645000
-171.897995	149.815994	952.270996	4.532500	-14.035000	-0.625625
-184.525009	148.839996	956.906982	-1.680000	-12.363750	2.743125
-162.443008	136.091003	973.804016	-14.914375	-15.566250	3.596250
-145.180008	114.497002	1008.757019	-21.301874	-12.473125	2.966250
-151.218994	97.478004	987.285034	-20.960625	-21.017500	3.193750
-109.922005	93.085999	1008.879028	-23.493750	-25.725000	2.865625
-104.981003	70.455002	1011.075012	-17.648750	-21.748125	2.445625
-78.812004	65.026001	1015.467041	-12.547500	-29.977501	2.008125
-59.719002	50.996002	992.897034	-6.343750	-29.793751	2.384375
-52.521000	51.605999	1019.187988	-3.473750	-14.118125	3.123750
-53.924000	66.368004	989.298035	-5.639375	-12.416250	3.421250
-43.310001	53.253002	992.286987	-7.678125	-15.386875	5.678750
-29.524000	31.049000	983.380981	-16.795626	-10.167500	5.967500
-25.071001	16.714001	992.286987	-23.117500	-5.026875	5.337500
-26.230000	-3.538000	986.431030	-26.490625	0.726250	5.105625
-21.655001	-27.145000	1007.536987	-19.512501	3.185000	2.948750
-32.390999	-30.256001	1005.158020	-11.926250	6.076875	1.400000
-22.875000	-17.446001	1008.390991	-11.195625	-1.640625	2.078125
-14.213000	-38.857002	1000.217041	-8.894375	-6.413750	3.491250
-21.777000	-59.535999	996.617981	-17.451876	-5.372500	4.633125
-14.213000	-61.000000	1013.575989	-13.041875	-7.083125	3.675000
-11.285000	-67.649002	988.749023	-12.626250	-11.633125	3.758125
-19.580999	-80.215004	982.161011	-6.619375	-5.311250	2.677500
-3.782000	-89.731003	991.067017	-1.264375	-6.523125	0.643125
-3.538000	-73.444000	1024.190063	3.587500	-6.816250	-1.570625
25.742001	-75.762001	987.651001	5.429375	-8.369375	-2.699375
10.126000	-66.673004	983.197998	-5.075000	-13.597500	-1.846250
21.594000	-63.135002	1034.620972	-0.253750	-19.333124	-1.977500
61.061001	-77.225998	948.001038	11.440625	-20.768126	-3.998750
37.271000	-28.548000	1013.515015	25.396875	-24.001249	-3.163125
80.153999	-51.789001	967.338013	38.622501	-27.033125	-2.826250
66.368004	-48.739002	949.160034	49.888126	-12.188750	2.791250
61.122002	46.909000	1044.076050	38.661877	0.616875	-4.615625
92.354004	50.935001	1024.312012	25.773125	3.705625	-5.381250
94.793999	34.403999	1005.402039	19.958750	8.920625	-5.171250
77.225998	56.669003	1010.708984	15.855000	26.941250	-8.456875
51.545002	91.072998	1025.531982	11.935000	20.615000	-6.737500
27.632999	58.072002	1001.559021	3.088750	22.596874	-6.418125
14.701000	80.581001	1002.473999	-6.553750	22.758751	-8.098125
6.893000	73.871002	1024.373047	-9.117500	15.911875	-4.672500
-13.847000	61.792999	993.324036	-12.315625	30.852501	-6.300000
-36.417000	76.982002	991.005981	-1.929375	29.500626	-5.350625
-47.275002	63.562000	998.143005	2.629375	12.079375	-1.360625
-43.126999	65.026001	959.591003	-6.448750	15.907500	-0.420000
-77.592003	40.931000	966.911011	-17.570000	5.516875	1.863750
-63.318001	16.165001	976.915039	-21.573126	8.859375	1.522500
-66.489998	6.405000	1030.473022	-16.174376	12.766250	-0.455000
-82.594002	13.725000	1046.638062	-3.994375	4.746875	0.870625
-69.295998	15.860001	996.862000	5.110000	3.176250	1.268750
-69.784004	33.549999	1014.674011	8.802500	0.695625	0.017500
-77.775002	38.735001	982.221985	7.962500	-2.603125	0.043750
-67.587997	39.284000	973.621033	7.962500	-2.603125	-0.468125
-75.091003	41.114002	986.369995	5.761875	-3.158750	-0.468125
-75.091003	41.114002	996.496033	10.491250	-5.083750	-1.885625
-65.819000	51.362000	996.496033	12.495000	-2.117500	-2.878750
-78.263000	53.192001	1015.588989	6.374375	-1.824375	-3.351250
-69.235001	35.990002	1004.487000	0.905625	-3.705625	-3.482500
-60.817001	28.853001	1008.757019	-0.358750	-3.871875	-3.784375
-69.235001	25.375999	1008.695984	1.413125	-6.256250	-3.556875
-56.364002	23.790001	993.934021	6.033125	-10.408125	-2.861250
-49.227001	39.528000	990.640015	6.951875	-5.958750	-2.896250
-45.079002	40.992001	983.137024	2.108750	-6.671875	-2.305625
-41.663002	45.079002	970.265991	-6.510000	2.187500	-1.085000
-36.295002	56.852001	1032.364014	-16.288124	0.323750	0.713125
-43.737000	43.188000	1016.382019	-19.490625	-6.335000	2.747500
-42.334000	18.726999	1003.205994	-14.564375	-7.708750	3.241875
-46.848000	6.161000	1005.341003	-5.862500	-2.716875	0.686875
-44.347000	7.320000	1016.382019	3.241875	1.050000	-1.242500
-36.050999	15.189000	1004.731018	8.946875	0.319375	-1.456875
-33.123001	19.093000	1008.025024	6.085625	2.638125	-1.106875
-34.892002	21.289000	990.762024	2.117500	0.433125	-0.673750
-39.161999	20.618000	993.872986	-2.152500	-0.608125	-0.691250
-42.821999	26.047001	1039.562012	-7.691250	-2.082500	-0.459375
-30.500000	-2.013000	960.018005	-14.455000	1.798125	0.533750
-41.297001	-8.235000	982.161011	-3.036250	1.085000	-0.140000
-43.188000	0.793000	994.299988	5.788125	0.533750	-0.791875
-43.675999	-1.098000	997.533020	7.205625	-0.210000	-1.233750
-46.726002	11.346000	1012.356018	7.437500	-0.411250	-1.338750
-35.990002	7.320000	995.885986	10.701250	-1.242500	-0.822500
-31.415001	19.520000	1022.238037	9.541875	-1.159375	-0.183750
-46.237999	26.901001	1000.095032	6.308750	0.573125	-0.634375
-42.639000	29.341000	996.739990	7.634375	-0.166250	-1.111250
-46.604000	37.881001	1011.746033	9.003750	1.456875	-0.993125
-44.469002	41.053001	1005.950989	7.625625	-0.420000	-1.610000
-37.881001	46.542999	962.031006	1.841875	-1.456875	-1.601250
-31.781000	50.935001	1028.276978	-2.003750	-2.476250	-0.131250
-24.827000	34.770000	997.960022	-0.809375	-1.833125	-0.210000
-37.149002	35.136002	1005.341003	4.860625	-0.188125	-1.067500
-34.465000	45.506001	1001.376038	5.578125	-3.259375	-0.700000
-35.136002	53.985001	1014.186035	1.448125	-3.355625	-0.455000
-32.513000	49.043999	996.374023	-0.328125	-4.900000	0.450625
-25.559000	37.881001	1002.169006	-13.011250	-6.129375	2.703750
-20.313000	26.535000	973.987000	-28.122499	-4.191250	4.169375
-26.169001	4.941000	977.525024	-32.698750	-7.258125	6.256250
-14.762000	-28.792000	958.432007	-30.537500	-3.465000	6.413750
-15.006001	-51.910999	997.777039	-13.794375	-2.524375	4.108125
2.318000	-16.287001	991.189026	4.768750	-3.976875	1.614375
-0.366000	-31.110001	1019.187988	16.856874	-5.149375	0.875000
-12.749001	-22.875000	1036.024048	0.730625	-8.216250	3.145625
-0.854000	-25.132000	1018.822021	-15.990625	-4.396875	1.111250
0.244000	-43.798000	1049.566040	-7.656250	-4.956875	0.083125
5.917000	-45.506001	1011.807007	-5.661250	-2.436875	-0.275625
9.943000	-48.190002	1011.989990	1.334375	2.913750	-1.413125
8.296000	-53.862999	993.812012	12.980625	0.726250	-1.675625
4.148000	-37.942001	1019.798035	11.436250	1.771875	-1.968750
11.407001	-29.951000	999.363037	14.538125	3.500000	-2.865625
-4.636000	-16.714001	1028.582031	13.212500	1.588125	-3.023125
0.427000	-16.714001	1024.921997	11.020625	3.023125	-3.421250
-2.684000	-8.479000	1006.500000	10.618125	3.005625	-4.313750
-9.089000	-4.209000	1032.973999	15.246875	6.085625	-5.757500
-7.686000	13.176001	996.862000	22.190001	10.163125	-8.645000
-18.117001	30.743999	1004.853027	18.681250	10.373125	-9.498125
-28.243000	67.039001	1021.384033	16.743126	10.167500	-6.230000
-30.378000	60.329002	1031.998047	9.226875	8.837500	-3.211250
-38.491001	54.595001	1023.275024	4.488750	7.323750	-2.743125
-48.007000	57.278999	1025.531982	1.728125	7.923125	-2.629375
-48.068001	56.119999	1017.053040	-1.286250	8.614375	-2.450000
-64.781998	57.584000	1010.708984	-4.838750	10.863125	-3.097500
-64.903999	46.909000	998.020996	-8.430625	11.453750	-3.994375
-78.933998	40.809002	988.627014	-14.905625	10.710000	-3.920000
-83.447998	5.978000	929.457031	-14.048125	7.406875	-3.132500
-82.228004	15.677000	952.148987	-6.160000	2.922500	-3.053750
-90.951004	11.712000	988.505005	-0.148750	3.346875	-2.699375
-90.524002	19.093000	997.411011	0.529375	1.505000	-2.922500
-95.648003	17.934000	1010.770020	2.931250	3.941875	-3.010000
-91.072998	19.153999	985.088989	7.529375	3.198125	-4.235000
-100.345001	27.389000	977.036987	14.555625	0.511875	-4.318125
-89.548004	47.275002	967.643005	19.066250	-2.607500	-6.348125
-106.384003	53.008999	951.600037	36.229374	-2.226875	-9.471875
-78.323997	66.246002	1002.778992	43.750000	-1.846250	-9.747500
-67.099998	122.792999	1033.218018	28.643126	1.452500	-10.360000
-97.356003	136.762009	1003.572021	15.386875	-2.502500	-7.542500
-79.666000	126.453003	992.408997	-5.792500	-6.405000	-2.944375
-101.931000	100.467003	984.845032	-20.785625	-3.653125	-0.065625
-100.528000	67.344002	978.135010	-35.581875	-7.752500	2.550625
-57.096001	43.859001	1017.663025	-47.018124	-10.771250	4.550000
-60.024002	15.677000	1006.561035	-48.374374	-9.270625	5.026875
-73.321999	-4.758000	992.104004	-44.992500	-12.788125	6.339375
-44.652000	-44.957001	975.512024	-51.095627	-16.603125	8.106875
-36.295002	-100.223000	987.833984	-59.276875	-9.240000	6.339375
-14.335000	-144.692001	1016.138000	-57.224998	-13.868750	6.133750
-18.788000	-193.003998	1004.487000	-31.758125	-9.152500	2.773750
-32.818001	-189.770996	983.747009	0.918750	1.001875	-1.946875
-43.371002	-159.453995	988.749023	28.380625	1.815625	-4.270000
-43.675999	-138.897003	1015.772034	43.898750	6.033125	-2.992500
-16.348000	-120.474998	984.906006	34.243126	0.271250	-0.975625
-20.007999	-94.183998	999.911987	15.010625	-1.360625	-1.999375
-39.406002	-122.061005	983.197998	3.088750	-0.201250	1.640625
-16.165001	-101.077003	1014.918030	3.723125	4.060000	2.537500
-18.056000	-70.760002	968.679993	8.137500	2.611875	3.311875
-9.821000	-35.075001	982.343994	5.096875	-3.587500	6.300000
-2.745000	-19.398001	1010.892029	2.887500	0.472500	8.631875
-27.389000	-6.710000	990.152039	3.128125	-3.836875	10.548125
-48.861000	-4.392000	989.298035	7.428750	-2.804375	8.618750
-52.704002	-10.797000	1000.643982	9.795625	0.091875	4.598125
-59.475002	7.747000	1028.459961	15.076250	0.533750	2.839375
-47.945999	-16.409000	1058.959961	22.605625	5.162500	4.471250
-39.345001	-25.315001	1042.368042	18.379375	2.310000	4.803750
-52.704002	-9.882000	983.869019	13.724375	1.028125	4.773125
-43.005001	1.708000	1008.757019	11.589375	1.553125	5.110000
-59.048000	24.827000	982.161011	10.618125	1.732500	2.795625
-61.366001	11.102000	954.345032	9.686250	3.578750	-1.102500
-75.396004	31.537001	965.020020	0.070000	-2.156875	-4.309375
-77.958000	43.920002	998.630981	-4.541250	1.194375	-5.236875
-72.773003	25.986000	992.531006	-4.558750	-3.731875	-5.302500
-55.998001	6.100000	1007.354004	-1.115625	-5.670000	-8.478750
-46.299000	8.296000	1012.294983	4.462500	1.456875	-12.018125
-55.815002	11.651000	1024.677979	7.923125	1.133125	-11.528125
-48.007000	-0.427000	989.541992	3.968125	-1.137500	-10.088750
-53.375000	-3.294000	1002.718018	1.736875	-3.101875	-7.494375
-80.825005	14.945000	993.385010	-2.975000	-2.226875	-1.951250
-36.478001	-19.153999	998.509033	-7.853125	-7.826875	1.513750
-13.359000	-32.025002	998.204041	-7.993125	-2.843750	-0.586250
-26.474001	22.631001	1118.618042	-6.304375	1.400000	-2.327500
13.725000	-45.323002	1046.821045	-2.861250	-23.533125	-3.644375
75.639999	-20.313000	942.023010	-2.861250	-23.533125	-10.080000
75.639999	-22.448000	1049.566040	-17.005625	-15.540000	-10.080000
42.090000	-22.448000	1049.566040	-18.042500	-21.376249	-8.233750
34.342999	-79.238998	940.986023	-18.484375	-25.681250	-0.752500
59.109001	-141.886002	948.367004	-5.875625	-3.027500	9.156875
75.762001	-121.695000	1048.406982	0.048125	7.048125	14.678125
92.964005	-84.607002	982.221985	7.459375	6.689375	9.878750
95.526001	-39.161999	1002.291016	7.879375	14.183750	-1.837500
45.139999	-41.846001	937.936035	-8.176875	5.958750	-6.317500
-18.666000	-57.584000	1062.498047	-13.855625	17.648750	-4.681250
-35.380001	-99.490997	999.302002	-10.696875	20.890625	-4.156250
-41.785000	-66.856003	1009.184021	1.750000	17.801874	0.354375
-51.300999	-88.511002	1067.255981	20.365625	16.944374	5.083750
-71.613998	-73.809998	922.869019	12.394375	1.920625	4.961250
-53.558002	-9.455000	1018.151001	11.786250	9.856875	3.421250
-93.147003	5.124000	1064.693970	16.716875	13.356875	3.731875
-80.764000	-20.923000	926.833984	-1.452500	4.843125	4.256875
-86.437004	-40.869999	1031.510010	-0.043750	7.179375	2.275000
-110.715004	-36.904999	969.168030	-1.951250	2.314375	2.393125
-83.204002	-65.209000	955.260010	-3.136875	1.023750	3.307500
-75.212997	-71.918999	1013.942017	6.125000	-6.085625	3.001250
-61.854000	-37.758999	1012.356018	1.693125	-11.313750	1.719375
-75.274002	-42.090000	1000.460999	0.861875	-24.976875	4.243750
-40.199001	-60.512001	990.091003	7.914375	5.079375	2.808750
-56.730000	-24.948999	1009.855042	17.679375	11.165000	-0.039375
-55.265999	-15.067000	982.405029	13.956250	2.152500	2.362500
-43.431999	-14.762000	1027.605957	4.851875	3.718750	3.241875
-72.711998	-26.169001	974.596985	0.927500	-2.476250	1.540000
-70.210999	-4.331000	1023.213989	-0.888125	-2.594375	1.260000
-83.692001	-20.252001	987.590027	-5.726875	-5.245625	2.607500
-75.579002	-35.990002	965.447021	-7.573125	-7.616875	1.360625
-55.327000	-15.677000	1009.306030	2.922500	4.348750	-2.135000
-65.331001	35.319000	1094.889038	7.612500	1.767500	-2.205000
-74.359001	21.960001	998.936035	2.611875	-3.508750	-0.953750
-60.756001	-2.745000	968.436035	4.051250	-2.660000	-1.605625
-46.482002	0.305000	1007.293030	1.750000	0.271250	-2.961875
-20.557001	-13.908000	967.765015	-3.163125	-2.607500	-4.488750
-12.993000	-28.914000	959.957031	-2.808750	-2.371250	-3.928750
-14.396000	-31.476000	987.833984	0.993125	-2.117500	-2.375625
-39.101002	-26.169001	979.476990	3.758125	-4.401250	-0.682500
-49.105000	-10.126000	1051.701050	9.366875	-2.520000	1.277500
-30.561001	-21.655001	1050.297974	3.591875	1.706250	0.940625
-40.077000	-15.311000	1032.973999	-1.063125	1.159375	-0.262500
-37.942001	-11.407001	1003.816040	0.787500	1.736875	-0.323750
-34.221001	-10.614000	1000.522034	-0.818125	1.093750	0.083125
-58.376999	-7.930000	996.374023	0.822500	2.537500	0.717500
-63.928001	-8.662000	978.684021	3.351250	1.697500	0.953750
-62.708000	-6.466000	1023.092041	4.720625	1.618750	0.446250
-76.860001	30.683001	1020.041992	5.796875	2.690625	-0.070000
-61.610001	28.426001	1038.159058	5.083750	3.381875	-0.074375
-49.410000	-4.026000	1030.838989	0.428750	4.007500	-0.546875
-77.835999	17.263000	974.353027	-1.623125	2.148125	-4.453750
-70.698997	3.660000	995.458984	-3.517500	0.188125	-5.215000
-59.170002	-11.224000	1000.095032	-10.346875	-0.157500	-4.611250
-51.667000	-21.167000	985.882019	-3.635625	1.640625	-4.908750
-55.265999	-31.537001	993.994995	5.425000	2.878750	-4.305000
-48.129002	-37.881001	993.690002	10.495625	5.468750	-3.653125
-40.687000	-42.090000	949.403992	11.436250	1.150625	-2.366875
-57.218002	-14.640000	1008.208008	9.292500	0.643125	-0.612500
-58.681999	-18.177999	976.854004	5.241250	-0.231875	1.312500
-65.941002	-5.856000	998.387024	-0.459375	-1.120000	3.246250
-70.028000	-9.028000	1007.536987	-3.823750	-0.245000	2.716875
-81.801003	0.793000	1032.912964	-0.669375	-0.341250	2.463125
-70.882004	-8.113000	1017.480042	2.038750	5.394375	1.548750
-91.012001	-7.808000	1002.962036	2.611875	1.872500	3.263750
-110.043999	-16.896999	1049.566040	0.923125	2.060625	5.306875
-96.746002	-21.594000	965.080994	3.780000	4.493125	2.940000
-107.665001	-22.204000	1000.827026	4.886875	0.945000	2.751875
-70.455002	12.993000	999.057983	2.301250	1.806875	1.828750
-81.191002	12.322001	1017.541016	-1.076250	0.831250	3.053750
-32.574001	6.039000	968.924011	-8.063125	-3.040625	4.808125
-45.567001	14.579000	1019.737000	-4.532500	0.161875	3.311875
-68.381004	18.849001	984.052002	-5.560625	0.704375	3.110625
-38.307999	11.041000	1003.389038	-6.251875	2.738750	3.408125
-50.569000	14.945000	973.559998	-6.545000	0.437500	3.272500
-64.416000	20.313000	1005.523987	-3.898125	0.748125	1.246875
-43.737000	17.080000	951.051025	2.493750	-0.840000	-0.980000
-74.298004	22.997000	981.246033	6.238750	-1.798125	-1.054375
-70.089005	21.837999	1002.291016	11.466875	-0.669375	-2.664375
-64.721001	36.600002	979.965027	15.373750	0.997500	-5.241250
-99.552002	42.395000	979.294006	4.550000	-4.204375	-2.358125
-88.938004	34.465000	1029.253052	-2.345000	-1.771875	-2.314375
-84.240997	11.895000	986.919006	-0.971250	-3.237500	-5.215000
-86.742004	1.891000	1002.108032	-3.101875	-3.333750	-5.460000
-100.528000	-12.688000	1001.010010	-2.743125	-2.130625	-6.951875
-82.594002	-24.827000	979.476990	1.360625	-3.766875	-8.216250
-105.834999	-0.305000	1043.099976	4.637500	-2.778125	-6.247500
-75.152000	-16.226000	969.838989	4.081875	-3.290000	-4.633125
-69.600998	-32.939999	995.337036	-4.742500	-8.382500	-3.010000
-58.804001	-28.243000	1080.614990	-11.296250	-2.218125	-2.135000
-39.589001	-45.993999	961.299011	-8.225000	-2.047500	-1.750000
-64.233002	-38.857002	1002.351990	-0.398125	-1.627500	-0.262500
-67.832001	-26.596001	1014.307983	5.600000	-1.277500	0.253750
-74.481003	-30.743999	995.276001	9.205000	0.695625	0.463750
-79.422005	-24.095001	1036.878052	11.291875	0.026250	-0.100625
-69.967003	-12.078000	1045.967041	11.410000	1.229375	-0.008750
-74.176003	-31.598000	998.204041	9.113125	-0.721875	-1.286250
-63.074001	7.869000	1013.088013	6.641250	3.298750	-3.193750
-66.856003	2.257000	964.044006	5.398750	5.188750	-1.960000
-54.046001	15.128000	964.531982	-1.242500	0.021875	-2.021250
-69.052002	28.548000	980.392029	-3.049375	1.098125	0.358750
-73.566002	-5.856000	987.406982	-7.936250	-3.163125	1.058750
-52.521000	19.825001	1011.929016	2.555000	0.039375	-4.165000
-52.948002	54.595001	992.713989	11.781875	5.079375	-5.324375
-58.376999	56.486000	982.527039	-0.494375	-0.783125	-3.364375
-57.950001	50.081001	1002.901001	-0.065625	0.459375	-2.498125
-85.460999	52.216000	999.302002	2.292500	-0.599375	-2.406250
-85.522003	31.842001	1008.268982	-1.929375	0.358750	-3.255000
-71.370003	10.065001	1033.279053	-1.688750	2.170000	-3.500000
-86.253998	0.671000	993.994995	-4.567500	1.141875	-3.294375
-46.542999	-29.524000	983.502991	-11.182500	1.321250	-3.679375
-61.732002	-3.294000	1017.785034	-9.432500	-0.538125	-4.055625
-44.529999	-7.686000	1000.643982	-4.904375	0.542500	-1.120000
-56.181000	-11.224000	999.424011	-0.660625	0.210000	1.723750
-62.646999	1.708000	992.897034	4.913125	0.078750	3.049375
-59.719002	-15.006001	1001.315002	7.621250	-0.148750	3.473750
-29.036001	-16.958000	1010.587036	8.176875	-4.138750	0.074375
-67.161003	3.111000	1010.160034	12.840625	-2.283750	-3.766875
-64.111000	3.660000	992.592041	7.546875	0.590625	-2.401875
-64.781998	-3.599000	983.991028	-2.156875	-1.150625	-0.350000
-74.969002	-9.943000	997.106018	-5.893125	-0.210000	0.949375
-72.834000	-15.799000	996.984009	-6.593125	1.824375	1.548750
-79.726997	-38.857002	1005.585022	-4.690000	0.420000	1.811250
-97.112000	-27.205999	992.470032	-2.629375	-0.223125	1.225000
-80.276001	-24.827000	987.223999	5.210625	0.284375	0.083125
-67.099998	-1.281000	1011.319031	5.210625	0.161875	-1.203125
-65.758003	12.200000	1003.877014	5.438125	0.161875	-1.203125
-65.758003	3.233000	973.072021	0.083125	0.083125	0.393750
-83.204002	3.233000	973.072021	-3.591875	-1.006250	1.518125
-68.076004	-0.610000	1003.205994	-3.745000	0.083125	0.485625
-89.974998	-2.196000	996.191040	-4.103750	-0.398125	-0.223125
-91.012001	-8.601000	972.401001	-7.035000	-0.774375	-0.660625
-70.577003	-19.703001	1002.230042	-3.163125	1.006250	-1.710625
-65.209000	-22.204000	1006.317017	1.334375	-0.678125	-2.082500
-59.963001	-17.141001	1021.505981	-0.748125	-1.325625	-1.295000
-67.404999	-15.860001	1011.807007	-0.367500	0.039375	-0.140000
-71.858002	-22.631001	1000.460999	2.060625	-1.045625	0.577500
-75.396004	-19.459000	989.481018	6.199375	-1.058750	0.135625
-62.220001	-11.529000	997.533020	6.326250	0.630000	-1.203125
-72.773003	14.884000	1020.835022	5.656875	0.997500	-2.051875
-55.998001	9.211000	994.848999	2.668750	0.883750	-2.940000
-66.306999	28.853001	1022.726013	2.782500	1.544375	-2.633750
-71.613998	1.281000	981.916992	0.962500	1.820000	-2.165625
-71.492004	-1.464000	1006.439026	0.835625	1.316875	-1.526875
-76.799004	-4.514000	1016.869995	6.724375	-0.424375	-1.386875
-62.586002	-17.690001	991.189026	6.982500	1.561875	-0.708750
-40.809002	-22.814001	965.080994	10.570000	1.085000	0.196875
-51.179001	-2.867000	968.984985	13.663125	0.126875	1.540000
-66.856003	0.915000	1001.742004	7.218750	-0.074375	2.703750
-68.807999	0.244000	988.992981	0.621250	-2.677500	2.506875
-81.556999	7.991000	1006.866028	-3.307500	-2.747500	1.295000
-78.385002	15.799000	1029.619019	-2.765000	-1.181250	-0.170625
-85.948997	11.102000	1001.437012	1.465625	-1.417500	-1.631875
-77.775002	16.165001	1012.478027	1.522500	-0.774375	-1.798125
-67.832001	5.307000	1017.296997	-3.206875	-0.643125	-0.739375
-67.222000	-7.625000	1004.853027	-1.684375	-0.266875	-0.717500
-73.139000	-6.466000	1004.059998	-4.445000	0.498750	0.157500
-58.681999	-2.501000	1001.986023	-6.632500	0.870625	0.258125
-51.179001	-14.945000	988.687988	-3.871875	0.463750	-0.551250
-51.850002	15.494000	992.165039	-1.710625	0.988750	-0.424375
-60.938999	21.533001	968.741028	1.470000	0.590625	-0.148750
-86.070999	8.296000	964.410034	4.326875	-0.577500	-0.385000
-98.637001	5.124000	998.143005	4.777500	-2.450000	-0.214375
-70.638000	4.758000	1026.995972	4.956875	-1.833125	-1.198750
-88.084000	6.344000	1025.531982	2.467500	-2.646875	-1.946875
-65.209000	5.734000	1023.945984	0.796250	-1.430625	-1.614375
-70.272003	-0.061000	1038.586060	-5.989375	-1.071875	-0.070000
-80.581001	-9.211000	995.337036	-10.132500	-0.293125	0.446250
-63.928001	-22.448000	973.132996	-5.906250	0.100625	-0.538125
-39.223000	-7.808000	1018.212036	-4.051250	2.528750	-1.238125
-36.660999	-14.823000	965.203003	-2.113125	1.373750	-1.330000
-56.486000	-12.383000	959.225037	-2.327500	0.345625	-0.586250
-58.072002	-12.566000	981.551025	-0.135625	-0.091875	0.144375
-76.127998	-19.947001	988.627014	1.693125	-1.470000	-0.070000
-76.615997	-15.189000	1010.830994	5.022500	-0.853125	-0.061250
-64.660004	-16.714001	1030.473022	5.512500	-0.236250	-0.398125
-75.091003	-2.074000	1020.713013	1.561875	-1.456875	-1.010625
-64.416000	-9.943000	996.191040	-0.188125	-0.315000	-0.021875
-64.050003	-15.494000	1005.585022	-2.721250	-0.599375	-0.039375
-77.835999	-8.967000	988.200012	-0.363125	-2.511250	-0.651875
-69.845001	-18.971001	979.965027	-1.706250	-1.400000	-0.896875
-52.277000	-20.740000	1032.791016	-3.189375	1.592500	-0.966875
-48.129002	-24.278000	999.668030	-1.461250	-0.577500	-0.809375
-82.106003	-20.434999	986.004028	-1.798125	-0.494375	-0.214375
-65.636002	-35.136002	1015.650024	-3.788750	-0.140000	-0.630000
-61.061001	-29.585001	1011.989990	0.866250	-0.061250	-1.225000
-73.261002	-30.500000	1001.559021	3.075625	0.021875	-0.918750
-59.170002	-26.047001	998.570007	2.520000	1.421875	-1.015000
-63.806000	-29.036001	996.617981	-0.564375	-0.336875	-1.172500
-58.011002	-27.450001	994.788025	2.454375	-0.297500	-1.413125
-68.259003	-15.616000	1005.645996	7.109375	-2.248750	-1.456875
-67.466003	-22.753000	988.444031	6.973750	1.006250	-0.831250
-58.255001	-13.359000	1028.276978	9.397500	0.231875	-1.645000
-65.941002	-14.396000	1037.792969	6.825000	3.027500	-1.942500
-60.451000	-2.806000	1041.087036	0.910000	3.495625	-0.446250
-46.604000	-9.943000	1066.828979	-3.893750	5.127500	-0.170625
-63.440002	-12.200000	1070.244995	-15.378125	7.835625	0.805000
-72.528999	-13.176001	998.509033	-19.796875	10.241875	0.039375
-92.598000	-34.465000	1029.557983	-12.810000	13.715625	-1.505000
-120.231003	-46.665001	927.749023	-5.980625	11.628750	-1.776250
-113.764999	-48.799999	906.643005	6.641250	12.525625	-1.789375
-125.477005	-38.430000	930.677002	16.633751	9.178750	-1.837500
-130.845001	-18.971001	886.574036	19.446875	3.745000	-1.916250
-123.159004	-19.032000	928.419983	11.550000	-1.579375	-0.910000
-131.820999	-17.202000	977.403015	6.177500	-4.016250	-1.023750
-111.081001	-19.520000	975.023987	6.763750	-5.302500	-1.719375
-101.198997	-22.204000	1047.858032	0.984375	-6.203750	-1.500625
-113.764999	-8.052000	1032.242065	2.051875	-4.703125	-2.467500
-101.138000	-14.213000	991.554993	6.654375	-2.996875	-1.491875
-109.495003	-5.795000	967.277039	1.365000	-3.233125	1.868125
-85.339005	-7.808000	973.255005	0.516250	-4.243750	0.708750
-106.017998	0.915000	948.001038	2.856875	-7.879375	-1.732500
-79.300003	10.065001	968.984985	0.638750	-8.553125	-3.093125
-86.558998	17.750999	1024.617065	0.739375	-6.553750	-3.561250
-79.238998	-1.464000	1029.375000	-1.601250	-8.478750	-2.760625
-76.860001	-6.588000	1067.317017	-1.592500	-6.960625	-2.699375
-66.489998	-20.130001	1023.335999	0.555625	-4.760000	-1.671250
-52.704002	-14.457000	1017.846008	3.635625	-2.721250	-1.181250
-58.499001	0.732000	1000.033997	8.198750	1.417500	-0.953750
-60.024002	16.714001	1009.733032	10.430000	1.115625	-0.310625
-60.389999	11.163000	969.717041	5.897500	-0.205625	-0.188125
-60.389999	17.995001	970.632019	1.754375	-1.085000	-0.350000
-71.308998	22.997000	979.111023	3.167500	-1.907500	1.019375
-83.264999	23.546000	986.431030	3.163125	-2.730000	4.221875
-88.999001	20.374001	995.458984	2.891875	0.573125	5.306875
-91.012001	0.976000	1030.717041	1.443750	-0.450625	4.086250
-55.937000	-3.294000	969.900024	3.871875	-0.673750	2.804375
-31.293001	14.579000	1026.751953	1.137500	-1.535625	4.755625
-27.877001	33.123001	1031.571045	-1.220625	-3.495625	6.400625
-55.083000	24.948999	1015.406006	-0.446250	-1.763125	7.695625
-57.950001	30.805000	1033.645020	-0.354375	-0.621250	7.249375
-53.253002	34.221001	1024.006958	-1.290625	2.843750	3.963750
-49.227001	42.151001	1018.760986	-3.198125	3.132500	0.188125
-60.329002	37.088001	1002.718018	-4.567500	4.628750	-2.432500
-75.274002	17.568001	987.833984	-7.288750	4.392500	-3.303125
-73.688004	-6.039000	1003.450012	-7.301875	5.705000	-3.412500
-79.178001	-20.740000	1002.718018	0.450625	4.943750	-5.333125
-62.341999	-20.007999	1006.317017	6.238750	7.533750	-6.470625
-81.374001	4.087000	1015.223022	8.837500	5.998125	-5.460000
-97.234001	2.074000	954.283997	1.255625	1.750000	-4.396875
-88.023003	0.732000	927.871033	-13.234375	-1.750000	-4.173750
-93.147003	-4.758000	952.270996	-24.740625	-2.975000	-4.134375
-90.462997	-33.916000	965.874023	-30.975000	-10.141250	-3.823750
-76.127998	-64.781998	1002.778992	-20.776875	-8.373750	-3.876250
-48.434002	-70.577003	1062.619995	-5.976250	-15.859375	-2.498125
-40.687000	-53.680000	1012.721985	15.120000	-20.461876	-1.443750
-50.691002	-31.903000	975.817017	33.140625	-8.325625	-1.238125
-46.299000	-2.196000	986.858032	40.241249	-0.945000	-1.085000
-37.271000	17.263000	990.213013	26.145000	-3.171875	-0.052500
-37.453999	42.517002	993.140991	5.276250	-6.343750	-0.713125
-25.010000	31.781000	993.202026	-6.230000	-6.960625	-1.999375
-22.143000	13.420000	984.356995	-11.746875	-4.725000	-4.493125
-28.243000	3.477000	1006.682983	-11.746875	-4.725000	-6.496875
-28.243000	-20.801001	1032.181030	-15.312500	0.013125	-6.496875
-34.831001	-20.801001	1032.181030	-12.862500	3.469375	-5.705000
-19.398001	-46.665001	1023.275024	-2.331875	2.708125	-4.908750
-42.028999	-51.118000	1015.345032	6.431250	8.408750	-5.031250
-40.015999	-34.647999	996.739990	10.959375	2.835000	-3.596250
-41.358002	-11.895000	990.213013	7.739375	2.248750	-2.248750
-45.383999	-0.854000	990.884033	2.681875	4.751250	-2.121875
-44.408001	12.200000	979.598999	-1.045625	3.456250	-2.699375
-45.139999	10.980000	998.875000	-2.288125	1.203125	-1.977500
-59.779999	-0.183000	1007.658997	1.430625	1.995000	-1.723750
-58.438000	-0.610000	997.044983	6.956250	0.310625	-2.331875
-44.896000	3.599000	1017.053040	6.295625	2.371250	-3.027500
-58.804001	15.250000	1005.096985	7.538125	4.497500	-3.836875
-51.423000	0.732000	1002.473999	6.173125	3.185000	-3.377500
-48.983002	16.104000	1008.635010	0.879375	2.835000	-2.095625
-53.924000	-2.928000	984.967041	-0.345625	-0.380625	-1.015000
-57.340000	2.135000	1005.829041	-1.115625	1.443750	-1.198750
-68.137001	6.161000	1012.173035	0.306250	2.603125	-1.102500
-65.086998	13.115000	1000.460999	1.150625	0.708750	-0.389375
-52.826000	10.004000	995.885986	0.774375	7.739375	-0.739375
-81.313004	18.605000	1005.096985	3.294375	5.315625	-1.141875
-76.311005	12.993000	988.078003	1.798125	2.493750	-1.146250
-67.649002	6.649000	996.801025	1.640625	0.682500	-1.421875
-71.858002	12.505000	998.204041	1.723750	-2.266250	-1.365000
-56.730000	13.176001	1015.283997	1.732500	-1.356250	-0.853125
-76.615997	11.712000	1000.522034	3.513125	1.281875	-0.188125
-68.990997	8.784000	995.337036	2.808750	0.332500	-0.638750
-65.331001	19.215000	999.606995	2.734375	2.323125	-1.382500
-84.667999	16.469999	986.126038	0.398125	3.005625	-1.032500
-75.334999	17.080000	994.848999	-0.214375	3.290000	-1.058750
-73.566002	19.947001	1012.234009	1.264375	3.158750	-1.592500
-82.654999	0.732000	990.700989	2.196250	8.338750	-1.955625
-96.624001	11.956000	1009.367004	0.350000	12.215000	-2.248750
-96.014000	14.945000	991.859985	-0.428750	12.390000	-2.130625
-103.151001	8.235000	990.395996	1.863750	10.933125	-1.395625
-122.487999	13.115000	1006.377991	1.286250	12.429375	-0.853125
-124.318001	9.150001	985.882019	0.586250	4.589375	-0.931875
-139.201996	5.734000	1012.478027	-1.045625	21.577499	-1.137500
-150.609009	24.095001	991.189026	-2.865625	17.036249	-1.701875
-150.914001	2.135000	993.445984	-6.776875	24.224375	-0.463750
-158.660995	11.407001	996.191040	-2.699375	12.600000	-0.783125
-173.606003	-1.525000	1000.095032	0.516250	-0.284375	-1.089375
-157.746002	5.795000	959.468994	1.181250	-11.672500	-1.623125
-159.820007	3.294000	1005.523987	1.176875	-5.538750	-1.859375
-145.423996	5.795000	983.137024	1.588125	-13.776875	-1.986250
-127.551003	16.958000	1012.356018	0.730625	-46.064377	-2.152500
-98.209999	-0.732000	964.776001	0.332500	-55.216873	-0.406875
-46.665001	-5.612000	977.463989	-4.703125	-32.873749	0.100625
-56.059002	-4.636000	1029.740967	-3.902500	-16.738750	-0.293125
-35.075001	-10.797000	1013.697998	1.063125	-6.956250	-1.163750
-28.243000	8.113000	1018.273010	0.958125	-5.263125	-0.831250
-38.979000	-1.525000	997.471985	-1.242500	-6.256250	0.638750
-43.066002	-9.089000	1005.341003	-1.509375	-2.248750	0.463750
-23.485001	-7.320000	999.363037	-2.786875	-0.140000	-0.301875
-33.489002	-17.141001	988.749023	-4.248125	1.172500	-0.008750
-30.316999	-16.348000	995.215027	-2.883125	0.148750	-0.708750
-20.374001	-17.568001	993.567993	-1.942500	-0.354375	-0.730625
-29.341000	-16.104000	1001.559021	0.494375	0.319375	-0.284375
-34.038002	-19.153999	1000.033997	3.504375	1.281875	-0.673750
-44.591000	-5.612000	1009.122986	8.684375	1.505000	-1.233750
-37.027000	-6.710000	980.392029	9.248750	2.835000	-1.395625
-37.942001	-10.004000	1016.809021	8.080625	1.076250	-1.312500
-35.319000	-0.671000	1003.816040	4.637500	0.166250	-1.316875
-33.916000	0.366000	1003.328003	0.682500	0.105000	-0.625625
-40.809002	-0.732000	1000.643982	-3.696875	0.560000	-0.258125
-31.171000	-5.734000	1002.840027	-5.105625	-2.174375	-0.818125
-31.598000	-12.139000	993.629028	-5.516875	-1.330000	-0.446250
-34.038002	-8.235000	1010.648010	-4.799375	0.441875	0.113750
-36.722000	-19.459000	989.786011	-7.087500	-1.662500	0.844375
-35.746002	-20.740000	1009.733032	-9.926875	-0.035000	0.892500
-35.624001	-29.585001	1005.890015	-12.131875	-0.603750	1.106875
-29.951000	-40.199001	1005.036011	-11.121250	-1.684375	1.229375
-37.271000	-43.431999	968.436035	-5.289375	-2.524375	0.301875
-35.136002	-58.681999	990.945007	-1.286250	-2.003750	-0.783125
-21.960001	-48.312000	1006.622009	2.515625	-2.572500	-1.150625
-35.990002	-41.053001	1034.926025	-1.890000	-1.614375	0.188125
-22.814001	-60.878002	1013.027039	-6.006875	-2.393125	0.949375
-20.496000	-62.830002	997.228027	-8.754375	-3.075625	0.153125
-31.659000	-62.586002	988.260986	-6.706875	-0.035000	-1.251250
-31.354000	-70.577003	975.817017	4.576250	-0.936250	-2.502500
-24.461000	-63.379002	1006.500000	11.703125	-0.389375	-2.795625
-24.034000	-51.118000	1016.869995	16.852501	1.255625	-2.642500
-26.596001	-35.990002	1005.585022	15.916250	1.133125	-2.511250
-27.938000	-31.537001	1015.893982	10.609375	1.137500	-1.763125
-31.354000	-27.511000	1006.072998	6.396250	0.253750	-2.143750
-40.320999	-30.988001	988.078003	6.943125	2.174375	-2.476250
-26.840000	-21.533001	1001.497986	7.472500	0.756875	-1.881250
-28.670000	-13.847000	985.882019	7.175000	-1.181250	-0.980000
-30.134001	-14.518001	987.833984	3.421250	-0.021875	-0.643125
-32.208000	-14.396000	994.971008	2.135000	-0.389375	-1.141875
-21.716000	-21.167000	1003.877014	-0.774375	0.638750	-1.010625
-33.123001	-10.675000	1029.924072	-1.369375	-1.220625	-1.334375
-31.110001	-13.054000	1020.468994	0.625625	-0.844375	-1.408750
-26.413000	-9.577000	1021.018005	0.428750	0.420000	-0.853125
-25.132000	-12.566000	1011.807007	1.058750	0.455000	-0.678125
-28.304001	-12.932000	1002.169006	1.522500	1.544375	-0.822500
-35.685001	-7.625000	983.320007	2.480625	1.487500	-0.966875
-33.916000	-20.984001	958.737000	1.610000	-0.323750	-1.207500
-30.316999	-5.246000	1001.254028	0.835625	2.594375	-1.688750
-39.101002	-11.041000	1002.596008	2.800000	4.239375	-1.509375
-59.292000	-14.030000	949.953003	5.740000	4.816875	-1.614375
-20.313000	-24.705000	963.921997	7.892500	11.528125	-4.388125
-36.234001	6.832000	1022.481995	13.553750	5.105625	-5.906250
-70.028000	23.546000	990.640015	11.449375	1.583750	-4.195625
-55.265999	26.413000	992.775024	6.216875	-3.368750	-1.881250
-45.506001	15.799000	1031.448975	4.169375	-3.609375	-1.430625
-50.935001	26.718000	1043.709961	3.040625	-2.432500	-1.903125
-57.889000	27.084000	1023.335999	0.638750	-2.506875	-1.400000
-38.368999	18.117001	1014.734985	2.563750	-0.415625	-1.150625
-45.323002	20.007999	1023.031006	3.206875	0.367500	-1.771875
-50.813000	23.118999	966.301025	2.244375	-0.358750	-1.260000
-36.355999	20.618000	994.421997	2.428125	0.691250	-1.028125
-44.957001	16.714001	1001.070984	2.725625	-1.706250	-1.548750
-39.833000	23.241001	974.718994	1.461250	-0.280000	-1.093750
-28.304001	30.561001	1019.066040	3.885000	-1.903125	-0.761250
-20.069000	25.375999	1004.914001	3.976875	-1.185625	-0.621250
-24.034000	29.707001	1027.545044	-0.612500	-0.249375	-0.218750
-36.417000	43.554001	1016.320984	-2.931250	2.196250	-0.542500
-63.257000	40.138000	964.531982	-4.821250	1.688750	-0.433125
-54.595001	30.073000	892.734985	-15.303750	1.496250	-0.796250
-83.570000	-7.503000	948.122986	-24.290001	-4.366250	-0.043750
-81.069000	-94.245003	1021.872009	-29.876875	-2.948750	3.005625
-30.195000	-105.469002	1105.625000	-11.738125	5.980625	0.411250
14.762000	-25.742001	1164.489990	19.263124	10.080000	-2.730000
-55.205002	54.046001	1024.677979	25.029375	16.423750	-0.691250
-84.180000	21.106001	981.307007	16.506874	10.683750	3.163125
-92.292999	20.252001	968.497009	1.408750	4.978750	2.476250
-92.354004	2.074000	942.755005	-5.551875	1.846250	-1.246875
-63.684002	-20.557001	929.395996	-4.475625	1.176875	-3.753750
-53.192001	-10.248000	1001.497986	-2.839375	-1.010625	-3.788750
-63.013000	-21.655001	990.335022	-4.554375	-1.225000	-2.428125
-62.341999	-14.701000	1003.328003	-2.034375	-2.410625	-2.318750
-80.764000	-23.363001	1044.930054	-2.034375	-2.016875	-1.780625
-74.969002	-19.825001	998.325989	0.231875	-2.016875	-1.780625
-74.969002	-21.960001	1012.478027	-1.137500	-3.088750	-1.233750
-72.163002	-21.960001	999.729004	-0.765625	-1.036875	-1.159375
-65.819000	-36.234001	999.729004	-3.010000	-3.920000	-2.126250
-67.222000	-22.204000	1014.429993	-5.866875	-3.880625	-4.130000
-56.973999	-27.999001	1015.161987	-11.515000	-5.088125	-2.782500
-59.902000	-59.779999	1058.716064	-13.461875	-9.489375	-0.004375
-72.285004	-67.771004	1049.139038	0.918750	-3.434375	-1.071875
-102.601997	-68.320000	971.729980	3.285625	-4.226250	-0.214375
-48.007000	-48.494999	959.468994	-1.636250	-4.523750	0.030625
-74.359001	-46.970001	1002.351990	12.481875	4.313750	-3.718750
-93.208000	-0.854000	954.040039	18.926250	3.701250	-3.250625
-89.487000	11.834001	1013.332031	18.795000	3.578750	-1.373750
-61.243999	-13.359000	1023.518982	12.827500	2.340625	-2.283750
-89.853004	8.601000	1030.594971	-0.831250	2.887500	-3.285625
-75.152000	31.781000	1031.754028	-1.575000	11.488750	-7.210000
-70.210999	59.902000	1036.695068	20.273750	16.235624	-5.512500
-78.750999	34.831001	973.804016	40.197498	10.565625	-3.154375
-115.960999	48.678001	888.343018	55.838123	1.911875	-4.125625
-111.691002	45.018002	979.903992	36.929375	-7.205625	-6.965000
-48.434002	74.907997	983.137024	12.250000	-0.240625	-14.787500
-56.669003	99.490997	932.690002	1.216250	-8.780625	-18.720625
-50.081001	101.625999	1078.175049	-9.305625	-7.971250	-16.165625
-38.307999	28.609001	889.624023	-34.986874	-8.789375	-16.966249
-76.555000	35.075001	908.106995	-38.963749	-21.385000	-14.940625
-84.119003	61.000000	1047.492065	-29.977501	4.427500	-12.110000
-81.313004	62.708000	985.882019	-16.205000	-7.293125	-4.208750
-50.996002	34.952999	1077.260010	-1.706250	-5.998125	-0.507500
3.233000	44.469002	1035.718994	22.115625	12.573750	-5.705000
-53.008999	49.715000	960.689026	26.565001	4.151875	-6.212500
-28.365000	94.306000	1057.312988	16.130625	3.031875	-3.793125
-49.166000	91.134003	1019.859009	7.586250	2.047500	-0.643125
-36.478001	16.409000	1007.536987	10.985625	-2.296875	-3.858750
-34.647999	56.424999	1080.310059	-2.660000	3.228750	-4.703125
-39.161999	26.352001	974.475037	0.647500	-7.551250	-0.494375
-40.992001	1.525000	912.316040	19.582500	-5.420625	-3.543750
-80.459000	98.392998	1042.672974	23.471874	2.874375	-8.933750
-66.124001	122.061005	1000.705017	8.798125	-7.021875	-6.492500
-79.788002	110.471001	1036.695068	-7.231875	-3.797500	-3.574375
-59.475002	85.460999	1042.428955	-12.083750	2.397500	0.004375
-44.042000	62.037003	1015.467041	-24.714375	-7.625625	8.754375
-30.134001	36.295002	953.674011	-23.428125	3.088750	9.878750
-35.380001	44.469002	951.600037	7.008750	3.994375	2.296875
-95.403999	37.027000	874.862000	8.360625	-0.971250	-1.373750
-52.948002	75.945000	1070.977051	-3.863125	-2.021250	-1.264375
-71.736000	66.794998	1067.865967	-5.333125	-6.304375	0.835625
-72.101997	13.481000	1019.919983	-26.525625	-9.314375	3.495625
-81.679001	4.941000	1104.649048	-17.858749	4.821250	-0.389375
-70.760002	55.327000	944.523987	1.413125	3.692500	-5.709375
-83.021004	30.439001	895.601990	-1.190000	-1.837500	-6.903750
-53.680000	23.973000	949.830994	-11.335625	1.308125	-8.610000
-50.202999	14.457000	1037.244019	1.111250	3.758125	-5.652500
-30.439001	-9.577000	979.111023	13.601875	-3.675000	-2.541875
-41.907001	17.202000	1099.586060	14.787500	-2.292500	0.971250
-49.348999	20.557001	981.916992	11.506250	-15.859375	7.297500
-34.038002	35.257999	931.470032	-0.984375	-20.186251	11.086250
-54.411999	19.520000	1078.419067	1.001875	-0.415625	3.823750
-39.161999	35.257999	991.677002	0.476875	-1.093750	-2.205000
-24.888000	70.820999	975.755981	-11.930625	0.586250	-3.517500
-7.686000	53.313999	1012.173035	-12.473125	0.096250	-2.668750
-15.433001	38.917999	963.312012	-6.033125	-2.550625	-2.856875
-2.440000	13.847000	1034.376953	8.010625	1.789375	-1.356250
-26.535000	1.647000	1006.804993	12.538750	0.231875	0.621250
-13.786000	10.675000	974.780029	11.768750	0.835625	-0.498750
-42.028999	1.281000	968.619019	9.038750	-0.651875	-0.818125
-15.250000	14.884000	1011.257996	5.110000	2.323125	-0.997500
-34.282001	30.622000	1012.478027	4.834375	4.606875	-2.817500
-45.932999	32.330002	1011.257996	5.722500	1.588125	-1.907500
-30.988001	46.360001	1005.585022	3.215625	2.327500	-2.353750
-34.160000	53.741001	1007.842041	5.171250	1.561875	-3.049375
-34.647999	55.875999	977.585999	3.679375	-0.332500	-1.098125
-22.326000	41.968002	1018.395020	-3.526250	-2.765000	-0.533750
-21.837999	62.890999	1005.218994	-9.296875	-1.268750	-0.008750
-17.629000	32.818001	1041.697021	-11.690000	-0.765625	2.922500
-17.323999	23.973000	1009.671997	-16.244375	0.043750	1.303750
-43.859001	4.758000	1031.448975	-11.309375	-0.743750	0.420000
-29.036001	-5.795000	1010.221008	-11.265625	2.957500	-0.363125
-41.846001	-13.969000	1021.505981	-2.205000	2.673125	-1.719375
-7.991000	-9.211000	1013.270996	4.974375	3.272500	-2.826250
-29.707001	-0.915000	1051.945068	2.585625	10.775625	-1.841875
-51.667000	-3.050000	983.991028	-1.942500	6.549375	-2.016875
-68.076004	8.662000	970.388000	5.171250	5.477500	-2.135000
-82.594002	24.400000	966.117981	16.738750	9.445625	-2.406250
-68.076004	39.650002	952.454041	20.632500	3.876250	-2.143750
-62.159000	41.785000	1016.747986	17.841249	2.353750	-1.168125
-59.719002	38.186001	992.531006	14.761250	2.572500	-0.835625
-69.235001	46.299000	1008.940002	7.201250	1.456875	0.148750
-68.320000	53.253002	1029.375000	-3.198125	0.748125	1.343125
-71.736000	31.659000	954.710999	-7.428750	0.262500	0.861875
-87.840004	31.598000	962.153015	-5.836250	-0.061250	-0.328125
-84.240997	37.149002	976.366028	-0.546875	-1.561875	-1.273125
-66.489998	29.463001	993.202026	2.183125	-1.911875	-2.345000
-71.613998	46.482002	1003.572021	1.085000	-2.769375	-2.375625
-91.134003	53.985001	975.329041	-0.861875	-3.456250	-0.700000
-60.512001	48.799999	958.432007	1.570625	-4.055625	-0.993125
-68.990997	52.033001	977.158997	8.855000	-4.576250	-1.308125
-67.954002	57.035000	990.152039	14.441875	-3.994375	-0.945000
-55.144001	62.525002	1010.343018	19.709375	-5.451250	-1.400000
-56.486000	61.243999	993.202026	15.920625	-5.442500	0.008750
-39.894001	56.852001	979.903992	5.473125	-4.160625	-0.336875
-52.277000	63.135002	1009.428040	-0.245000	-3.189375	-1.080625
-35.136002	66.306999	1044.869019	-3.031875	-4.217500	-0.840000
-32.879002	77.592003	1058.105957	-3.775625	-3.176250	-1.776250
-34.282001	78.568001	1016.931030	1.050000	-3.224375	-1.115625
-33.549999	73.139000	1016.869995	2.651250	0.021875	-0.446250
-35.990002	76.555000	990.213013	2.380000	1.487500	-0.380625
-42.882999	77.835999	1006.500000	4.694375	-0.166250	-0.498750
-46.116001	67.892998	998.265015	1.942500	1.242500	-0.332500
-41.907001	67.832001	995.642029	1.426250	0.035000	-1.505000
-42.944000	79.788002	1015.710999	1.894375	-0.643125	-1.771875
-36.783001	79.422005	1009.733032	2.585625	1.093750	-1.693125
-36.966000	80.276001	990.030029	4.270000	0.945000	-1.614375
-43.371002	83.875000	993.385010	3.933125	0.411250	-1.627500
-54.351002	87.168999	1010.038025	1.115625	-0.511875	-1.623125
-49.348999	72.590004	1008.452026	-1.929375	1.483125	-1.951250
-44.957001	75.091003	999.973022	2.038750	3.215625	-1.085000
-52.643002	77.104004	967.704041	5.250000	1.610000	0.630000
-53.192001	81.191002	982.588013	2.196250	2.957500	0.835625
-52.459999	85.948997	1000.278015	-5.193125	0.109375	1.054375
-57.462002	81.862000	994.239014	-9.664375	-0.962500	0.363125
-46.970001	86.315002	1008.452026	-9.594375	0.026250	-1.308125
-40.931000	68.930000	1000.949036	-8.251250	-0.721875	-1.863750
-57.096001	72.163002	978.013000	-10.084375	-0.822500	-1.981875
-46.360001	61.427002	998.020996	-7.805000	1.500625	-2.270625
-64.293999	49.593002	995.031982	1.461250	-0.350000	-3.154375
-16.226000	49.043999	1019.249023	7.783125	-0.564375	-2.266250
-17.323999	55.449001	1006.804993	17.045000	0.774375	-3.045000
-58.132999	35.868000	970.205017	10.661875	-0.739375	-1.671250
-50.569000	61.061001	1035.474976	0.210000	-0.446250	0.328125
-41.663002	45.139999	966.057007	-2.003750	-1.150625	-1.588125
-60.512001	38.857002	976.731995	-11.672500	-1.898750	-4.716250
-48.799999	72.651001	1035.901978	-8.500625	0.879375	-3.828125
-62.708000	46.909000	1009.244995	2.261875	-0.883750	1.645000
-53.741001	41.418999	966.911011	2.261875	-0.966875	1.798125
-40.504002	49.471001	980.635986	2.213750	-0.966875	1.798125
-40.504002	49.471001	1024.433960	-1.706250	-0.665000	-1.855000
-42.456001	48.434002	1024.433960	-13.658750	-2.301250	-2.747500
-35.806999	51.240002	1011.562988	-16.480625	-1.850625	-1.408750
-40.260002	29.585001	980.757996	-2.445625	-1.456875	-1.308125
-46.177002	33.855000	979.781982	5.442500	1.745625	-1.640625
-46.360001	38.735001	1002.046997	2.108750	0.345625	-2.415000
-53.131001	20.252001	973.255005	-0.494375	1.242500	-2.419375
-53.802002	17.812000	1025.958984	3.263750	0.791875	-1.828750
-59.230999	26.413000	1016.565002	11.550000	0.000000	-1.273125
-49.837002	33.367001	992.043030	12.963125	0.555625	-1.540000
-48.068001	53.862999	1001.803040	7.914375	0.459375	-2.436875
-52.216000	53.802002	992.408997	-2.266250	-0.516250	-1.159375
-43.493000	42.151001	988.078003	-7.875000	-0.997500	-0.612500
-41.236000	31.659000	1003.083984	-8.124375	-2.699375	-1.938125
-51.545002	30.622000	997.838013	-8.531250	-2.576875	-2.340625
-20.374001	24.217001	1032.058960	-2.012500	0.214375	-1.841875
-57.401001	25.864000	1012.843994	2.655625	-0.266875	-1.518125
-47.640999	26.718000	992.713989	4.515000	0.840000	-1.435000
-41.174999	30.195000	1009.428040	6.090000	-0.971250	-1.487500
-52.399002	36.295002	978.317993	2.384375	-0.752500	-0.923125
-49.715000	36.355999	999.484985	4.834375	-0.420000	-0.988750
-43.980999	31.720001	1004.487000	6.326250	-0.796250	-0.691250
-50.202999	44.164001	987.712036	5.158125	-1.391250	-1.041250
-53.070000	56.973999	1007.415039	8.268750	-1.684375	-0.660625
-37.576000	43.188000	1004.426025	4.051250	0.096250	-0.538125
-49.227001	64.233002	1036.634033	0.546875	-1.146250	-0.923125
-37.942001	44.529999	987.712036	1.903125	-0.660625	-1.321250
-39.650002	52.764999	1004.548035	5.551875	0.905625	-1.185625
-43.554001	63.318001	998.020996	6.860000	0.752500	-0.245000
-49.348999	60.024002	993.324036	3.333750	-0.599375	0.297500
-47.091999	53.375000	989.419983	3.040625	1.220625	0.043750
-46.970001	56.303001	983.259033	7.205625	0.288750	-0.293125
-43.371002	68.564003	1013.697998	4.029375	-0.105000	-0.966875
-55.083000	63.318001	1038.525024	1.085000	-0.017500	-0.975625
-34.952999	62.830002	1014.125000	-1.855000	-0.275625	-1.456875
-43.615002	78.080002	1003.755005	-3.850000	1.365000	-1.710625
-45.506001	61.976002	1005.402039	-7.030625	1.211875	-0.988750
-50.142002	55.937000	978.989014	-8.614375	1.828750	-0.485625
-52.338001	55.998001	1019.737000	-6.930000	1.575000	-0.507500
-54.046001	27.877001	1037.427002	-12.543125	3.224375	-0.638750
-48.739002	36.660999	1010.708984	-15.750000	3.600625	-0.931875
-37.698002	34.526001	1023.824036	-12.963125	3.403750	0.420000
-62.159000	27.145000	1001.315002	1.968750	-9.520000	2.738750
-56.547001	13.176001	924.028015	10.758125	-1.973125	0.927500
-63.867001	41.723999	992.897034	15.951250	4.431875	-0.275625
-48.799999	35.075001	969.838989	12.700625	3.338125	-0.805000
-52.582001	42.028999	987.895020	7.446250	0.743750	-1.697500
-52.704002	51.545002	985.760010	0.949375	2.060625	-1.929375
-64.233002	46.055000	994.239014	-1.347500	1.850625	-1.076250
-71.675003	37.271000	981.002014	-3.298750	2.060625	-0.411250
-75.029999	44.957001	974.475037	-6.133750	3.902500	0.004375
-58.072002	33.244999	997.411011	-6.396250	-0.100625	-0.306250
-49.593002	33.062000	1017.541016	-5.919375	-1.789375	-0.770000
-61.549000	26.291000	1020.468994	-2.992500	-0.612500	-1.015000
-56.669003	29.341000	1004.059998	0.472500	-0.494375	-0.980000
-55.875999	33.367001	995.215027	0.245000	-1.242500	-0.844375
-63.135002	20.313000	976.244019	-0.065625	-1.255625	-0.726250
-58.132999	23.058001	980.208984	3.329375	-1.063125	-1.050000
-62.586002	27.145000	1004.731018	3.513125	-1.715000	-0.726250
-62.464001	23.546000	999.546021	0.984375	-1.570625	-0.975625
-58.499001	31.781000	1021.567017	1.448125	-1.903125	-1.028125
-48.861000	31.354000	1004.426025	2.817500	-1.286250	-0.927500
-52.338001	31.964001	985.393982	3.591875	-0.262500	-1.225000
-56.852001	29.889999	995.642029	3.679375	0.175000	-1.496250
-57.584000	40.869999	999.606995	3.963750	-0.577500	-1.557500
-52.887001	42.577999	1000.033997	5.083750	-0.363125	-1.426250
-56.242001	40.869999	988.260986	6.816250	-0.245000	-1.120000
-49.715000	42.821999	981.794983	8.684375	0.157500	-1.531250
-52.094002	55.388000	1027.118042	9.331875	-0.175000	-1.500625
-55.998001	52.704002	997.838013	4.081875	0.065625	-1.697500
-57.218002	56.303001	995.642029	2.021250	0.603750	-1.767500
-56.242001	54.290001	1000.583008	1.885625	-0.061250	-1.159375
-60.024002	52.826000	1000.033997	0.752500	-0.656250	-0.888125
-54.107002	50.996002	989.481018	-0.853125	-1.360625	-1.067500
-59.475002	58.255001	1007.903015	-0.542500	-0.896875	-1.601250
-48.556000	49.471001	985.455017	-0.599375	-1.618750	-1.211875
-50.386002	49.653999	1009.976990	-1.631875	-0.848750	-0.686875
-55.265999	43.126999	1003.267029	-2.970625	-1.312500	-1.128750
-55.875999	51.300999	1007.536987	-0.975625	-0.350000	-1.443750
-38.917999	46.421001	1015.833008	1.115625	0.319375	-1.386875
-52.582001	47.945999	986.614014	1.220625	-0.354375	-1.098125
-53.558002	50.447002	982.588013	-0.087500	-0.109375	-0.949375
-54.900002	52.216000	1014.796021	-1.343125	-0.700000	-0.630000
-57.096001	48.799999	1006.195007	-1.610000	-1.190000	0.564375
-50.202999	41.785000	999.363037	-3.530625	-0.096250	0.778750
-61.183002	45.323002	1013.210022	-2.126250	0.074375	-1.211875
-53.741001	46.726002	1003.267029	1.789375	-0.336875	-1.207500
-51.484001	39.589001	1008.513000	1.977500	0.332500	-1.198750
-48.494999	43.249001	988.200012	2.900625	-0.354375	-1.627500
-51.362000	45.018002	1005.890015	2.126250	-0.525000	-0.809375
-51.484001	41.846001	995.580994	0.713125	0.144375	-1.015000
-54.778000	40.382000	1012.843994	0.625625	-0.476875	-1.036875
-52.338001	38.307999	1002.413025	-0.809375	0.122500	-0.844375
-50.630001	47.640999	1005.218994	-1.264375	-0.831250	-1.295000
-49.410000	41.541000	997.044983	0.735000	-0.157500	-0.896875
-54.411999	38.917999	999.484985	0.135625	0.096250	-0.704375
-54.656002	31.537001	992.531006	-3.259375	-0.078750	-0.455000
-53.192001	35.075001	997.777039	-2.970625	-1.115625	-1.133125
-53.436001	34.160000	1010.648010	-1.824375	-0.310625	-1.395625
-41.480000	30.500000	999.119019	-1.487500	0.105000	-2.205000
-63.013000	33.977001	992.531006	-2.493750	0.179375	-1.526875
-53.862999	30.012001	1005.890015	-6.243125	-0.091875	-0.245000
-61.183002	13.176001	967.643005	-10.762500	-0.161875	-0.376250
-70.577003	16.165001	1006.927002	-2.646875	-1.260000	-1.063125
-54.534000	20.434999	1000.583008	5.915000	-0.721875	-1.163750
-51.545002	27.389000	1018.333984	7.000000	-1.881250	-0.857500
-48.373001	22.021000	993.994995	4.466875	-0.551250	-0.752500
-35.136002	24.217001	1006.988037	0.608125	-0.319375	-1.483125
-45.445000	22.204000	1012.294983	-0.923125	0.354375	-1.946875
-50.569000	21.594000	991.981995	-0.984375	-0.056875	-1.750000
-48.799999	22.326000	1008.452026	1.575000	-0.297500	-1.575000
-49.043999	27.023001	1008.452026	1.701875	-1.531250	-1.050000
-51.118000	21.716000	995.703003	0.826875	-1.299375	-0.870625
-49.288002	20.740000	1009.184021	0.638750	-0.516250	-1.295000
-45.688999	23.729000	1005.523987	2.393125	-1.430625	-0.962500
-42.151001	24.644001	992.226013	4.921875	-0.459375	-1.273125
-48.983002	24.644001	984.479004	3.806250	1.098125	-1.242500
-50.386002	27.999001	1011.014038	0.861875	2.135000	-1.898750
-50.386002	31.659000	1009.916016	1.207500	3.521875	-3.185000
-44.957001	34.587002	1010.281982	3.031875	1.421875	-2.541875
-47.702000	27.511000	988.871033	-0.678125	-0.896875	-0.905625
-47.336002	29.280001	996.801025	-0.065625	-0.599375	-0.730625
-54.595001	26.474001	1007.720032	1.960000	-0.778750	-0.533750
-51.667000	29.585001	992.348022	3.622500	-1.316875	-0.774375
-51.850002	33.123001	1012.905029	4.143125	-1.706250	-1.618750
-50.874001	33.672001	1012.478027	3.692500	-0.196875	-1.820000
-46.542999	34.647999	1002.656982	3.010000	-0.280000	-1.771875
-52.643002	42.395000	993.507019	6.453125	-1.365000	-1.776250
-44.713001	39.406002	993.690002	6.453125	-1.365000	-0.971250
-50.569000	40.869999	986.309021	5.630625	-1.627500	-0.971250
-50.569000	40.869999	998.204041	3.036250	-1.614375	-0.678125
-54.534000	41.358002	998.204041	0.376250	-0.144375	-0.844375
-48.617001	38.186001	1009.428040	-0.192500	0.122500	-0.656250
-45.932999	43.859001	993.080017	-1.706250	-0.153125	-0.752500
-41.541000	41.723999	1006.255981	-0.643125	0.118125	-1.155000
-36.295002	30.683001	1014.002991	0.936250	0.179375	-1.133125
-50.386002	38.857002	996.130005	-0.061250	0.783125	-0.630000
-44.225002	29.219000	1001.924988	-3.530625	-0.078750	-0.507500
-50.935001	31.354000	1027.728027	-8.028125	-1.124375	-0.984375
-49.043999	24.827000	989.481018	-6.081250	-0.682500	-1.190000
-38.979000	27.877001	991.250000	0.148750	1.478750	-0.743750
-52.338001	20.801001	1013.637024	1.955625	0.599375	-0.608125
-49.715000	23.607000	998.082031	2.148125	-0.332500	-1.106875
-42.761002	31.415001	1009.306030	0.332500	-0.402500	-0.888125
-48.739002	22.264999	996.374023	1.347500	0.223125	-1.080625
-48.678001	24.766001	993.812012	2.384375	0.201250	-1.141875
-48.799999	27.145000	996.557007	2.598750	0.297500	-0.984375
-49.166000	23.668001	1012.234009	0.074375	0.743750	-1.015000
-45.811001	17.629000	991.859985	-1.575000	-0.603750	-1.111250
-49.653999	29.402000	1004.791992	1.111250	-0.507500	-0.997500
-50.751999	22.875000	985.150024	3.360000	0.153125	-0.940625
-46.177002	24.521999	996.007996	2.218125	0.770000	-0.520625
-46.604000	23.668001	1015.223022	0.472500	0.463750	-0.975625
-50.386002	21.716000	996.617981	1.798125	-0.315000	-1.260000
-47.580002	30.927000	1012.843994	3.093125	0.074375	-0.844375
-45.993999	33.855000	997.593994	2.541875	-0.126875	-0.918750
-50.142002	20.984001	987.285034	1.798125	-0.052500	-0.901250
-50.386002	26.413000	1025.471069	1.032500	0.008750	-0.721875
-53.680000	32.146999	1005.523987	1.828750	-1.684375	-0.770000
-44.834999	31.354000	995.825012	2.200625	-0.573125	-0.840000
-46.237999	37.881001	992.470032	0.743750	-0.463750	-0.966875
-47.458000	31.049000	996.923035	0.056875	-0.017500	-1.015000
-53.618999	30.743999	1005.463013	0.914375	-0.450625	-0.857500
-49.227001	27.450001	1004.914001	1.246875	-0.402500	-0.866250
-54.167999	32.025002	997.655029	1.960000	-0.345625	-1.386875
-57.462002	35.441002	1003.632996	2.839375	0.245000	-0.831250
-49.105000	31.720001	1013.637024	3.062500	-0.621250	-0.857500
-48.799999	35.806999	1008.330017	1.592500	-0.844375	-1.268750
-43.005001	34.526001	997.777039	2.310000	0.691250	-1.308125
-53.131001	42.395000	991.067017	1.881250	-0.157500	-0.765625
-44.347000	31.781000	990.152039	0.577500	0.984375	-0.538125
-48.068001	29.646000	998.875000	0.376250	0.074375	-1.163750
-52.459999	33.855000	1005.218994	-0.258125	-0.844375	-1.001875
-52.338001	31.598000	1001.986023	0.910000	-1.885625	-0.783125
-40.625999	37.881001	1013.454041	0.035000	0.612500	-0.328125
-51.789001	22.326000	991.067017	-0.056875	0.249375	-0.476875
-42.882999	35.136002	1021.994019	3.530625	-0.227500	-1.225000
-44.285999	40.320999	1001.376038	3.714375	-1.111250	-0.931875
-48.190002	35.136002	989.846985	2.393125	0.603750	-0.918750
-36.722000	33.916000	1003.816040	1.509375	1.194375	-0.975625
-48.494999	38.979000	1007.903015	-1.155000	-0.673750	-0.831250
-47.824001	32.513000	1017.541016	-0.052500	-0.083125	-1.448125
-42.639000	40.931000	1041.697021	-0.135625	0.126875	-1.115625
-53.862999	35.868000	990.762024	2.537500	2.288125	-1.093750
-49.959000	37.332001	1005.158020	10.762500	5.341875	-2.323125
-51.605999	56.059002	999.424011	19.512501	5.215000	-2.231250
-61.549000	66.856003	986.614014	16.791250	4.038125	-1.627500
-60.512001	67.709999	994.726990	12.652500	6.011250	-2.485000
-70.455002	77.958000	987.528992	5.630625	4.116875	-2.078125
-69.417999	75.517998	984.296021	0.109375	2.043125	-1.203125
-70.272003	71.370003	995.153992	-5.993750	1.671250	-0.905625
-73.321999	69.540001	1007.963989	-7.472500	0.218750	-0.879375
-71.492004	66.978004	1007.231995	-3.066875	-1.553125	-0.083125
-64.355003	63.806000	1013.880981	-9.673125	0.240625	0.494375
-80.520004	40.809002	964.531982	-14.319375	0.494375	0.091875
-74.359001	45.932999	980.148010	-3.788750	0.183750	-1.268750
-67.771004	55.205002	976.609985	5.040000	-0.966875	-1.596875
-68.320000	52.338001	992.348022	8.338750	-0.577500	-1.461250
-66.124001	57.767002	996.679016	3.416875	-1.141875	-1.531250
-67.709999	56.119999	996.130005	-0.546875	-2.944375	-1.194375
-65.758003	53.558002	1010.526001	-0.603750	-2.751875	-1.093750
-59.597000	50.507999	1000.095032	0.975625	-1.999375	-1.010625
-66.306999	51.605999	1007.171021	4.475625	-0.980000	-1.338750
-66.612000	53.924000	994.178040	4.637500	-0.363125	-1.408750
-61.671001	57.401001	988.749023	1.675625	0.030625	-1.190000
-55.693001	56.242001	999.790039	-0.048125	-0.284375	-0.949375
-62.769001	49.837002	984.783997	-0.927500	-1.067500	-0.630000
-62.830002	49.776001	999.179993	-1.028125	-0.616875	-0.739375
-62.464001	53.131001	1004.121033	-2.865625	-0.555625	-0.901250
-63.074001	48.190002	995.580994	-5.429375	-0.800625	-0.896875
-59.963001	42.028999	995.764038	-3.915625	-1.745625	-0.848750
-59.170002	45.932999	1003.023010	-5.079375	-1.990625	-0.411250
-61.976002	40.443001	980.819031	-2.611875	-1.824375	-0.914375
-67.527000	33.123001	1015.955017	0.643125	-0.564375	-0.853125
-59.109001	41.541000	1000.643982	1.745625	-1.452500	-0.437500
-57.157001	40.382000	996.739990	4.764375	-1.286250	-1.452500
-57.096001	49.471001	1005.707031	2.681875	-0.455000	-1.435000
-51.423000	43.126999	981.307007	-1.526875	-0.700000	-1.023750
-55.144001	40.748001	993.934021	1.338750	-1.124375	-1.610000
-60.573002	40.382000	1002.778992	4.773125	-0.901250	-1.876875
-57.767002	29.951000	972.583984	3.556875	-1.728125	-2.353750
-44.164001	48.494999	1009.244995	3.963750	-2.336250	-3.132500
-43.310001	41.663002	1011.502014	-1.356250	-2.651250	-1.929375
-59.048000	42.944000	1005.096985	-2.559375	-3.071250	-0.822500
-55.083000	39.894001	996.191040	4.519375	-0.564375	-0.870625
-41.602001	44.834999	977.952026	5.149375	-1.067500	-0.498750
-54.900002	57.827999	998.020996	2.336250	-3.290000	-0.196875
-59.779999	41.846001	966.971985	-0.516250	-1.710625	-0.293125
-42.090000	57.584000	988.749023	-4.165000	-2.445625	-0.231875
-52.764999	50.935001	1010.098999	0.236250	-0.236250	0.459375
-16.165001	43.126999	1051.334961	2.388750	-0.227500	1.518125
-35.014000	46.665001	1037.732056	5.573750	-0.328125	0.367500
-52.582001	49.043999	999.363037	5.105625	1.120000	-0.118125
-39.528000	53.375000	1006.561035	1.850625	1.531250	-0.931875
-46.665001	51.118000	1001.497986	-0.507500	0.070000	-1.474375
-43.005001	45.079002	973.072021	-0.262500	0.459375	-1.010625
-32.939999	57.584000	980.087036	0.424375	-0.735000	-1.303750
-43.249001	54.046001	1014.002991	-1.146250	-1.225000	-1.671250
-42.456001	51.240002	1018.151001	-0.713125	-1.190000	-1.023750
-41.480000	44.469002	1022.177002	-0.161875	-0.573125	-0.800625
-49.348999	49.227001	999.729004	-0.109375	-1.080625	-1.141875
-48.799999	43.798000	998.570007	1.089375	0.599375	-0.949375
-41.053001	36.783001	999.790039	1.338750	-0.052500	-1.071875
-43.920002	44.713001	1002.108032	0.371875	-0.035000	-1.325625
-41.541000	50.325001	1001.742004	0.367500	0.306250	-1.194375
-34.098999	48.556000	1021.811035	-2.795625	-0.927500	-1.106875
-38.796001	43.371002	1014.369019	-6.645625	0.306250	-0.800625
-41.846001	31.537001	1028.338013	-5.381250	1.220625	-0.266875
-33.367001	32.939999	1015.955017	-6.724375	2.813125	-0.813750
-48.434002	31.110001	1039.379028	-7.573125	3.106250	-0.030625
-39.955002	21.899000	998.997009	-3.110625	4.865000	0.231875
-48.129002	24.705000	996.130005	-1.085000	3.731875	0.096250
-57.401001	15.677000	996.374023	0.205625	4.073125	0.678125
-55.632000	13.664001	998.325989	0.686875	3.320625	-0.109375
-59.658001	17.385000	969.046021	1.732500	1.898750	-0.446250
-54.716999	15.616000	1033.766968	-6.606250	2.944375	0.721875
-69.295998	4.209000	986.980042	-3.508750	2.655625	-0.030625
-74.603004	16.469999	1000.156006	-3.854375	3.758125	0.039375
-84.240997	10.919000	941.901001	0.708750	4.370625	-0.363125
-81.069000	20.434999	940.132019	2.498125	1.124375	-0.341250
-71.308998	6.588000	987.101990	1.255625	-1.846250	-0.345625
-75.029999	7.198000	1003.694031	0.280000	-2.664375	-0.844375
-68.990997	4.026000	1021.932983	0.945000	-2.073750	-0.861875
-67.587997	19.520000	1028.886963	1.999375	-0.490000	-1.176875
-71.125999	13.359000	993.690002	1.999375	-1.500625	-0.918750
-63.867001	10.858000	1001.559021	2.406250	-1.500625	-0.918750
-63.867001	10.858000	986.736023	0.393750	-2.848125	-1.115625
-55.937000	4.941000	986.736023	-0.275625	-1.019375	-0.966875
-61.427002	9.211000	981.734009	1.688750	-0.581875	-1.041250
-56.303001	9.272000	1010.160034	1.360625	-1.688750	-0.966875
-64.111000	20.862000	991.372009	-0.988750	-7.380625	-1.045625
-60.938999	16.592001	1009.244995	-1.260000	-0.441875	-1.220625
-66.184998	22.387001	1007.963989	-2.664375	-7.183750	-0.975625
-0.305000	6.466000	1024.677979	-3.801875	-8.960000	-1.334375
-40.443001	13.725000	1009.306030	-3.854375	-6.265000	-1.680000
-22.936001	1.159000	1012.905029	-5.626250	-8.785000	-0.284375
-59.963001	-4.941000	1037.671021	-12.945625	-12.446875	0.336875
-27.084000	-11.163000	981.673035	-20.133751	-12.740000	-2.677500
-68.259003	7.625000	1045.661987	-19.013750	-10.924375	-5.136250
-46.421001	-20.679001	1056.031982	-25.252501	-7.984375	-9.563750
1.830000	-56.852001	1077.808960	-32.672501	-3.123750	-13.391875
1.220000	-77.653000	1047.248047	-31.591875	-0.490000	-13.348125
0.976000	-104.859001	969.778015	-21.853125	0.490000	-12.013750
-22.509001	-121.756004	952.575989	-10.762500	3.539375	-13.580000
-15.555000	-138.348007	879.559021	-1.054375	10.377500	-18.353125
-0.854000	-124.806000	920.673035	6.103125	11.051250	-21.844376
12.566000	-154.451996	927.627014	12.617500	10.587500	-21.940624
7.015000	-148.291000	954.406006	5.783750	8.439375	-18.038124
-1.281000	-131.516006	1008.757019	5.766250	1.719375	-11.445000
1.769000	-152.012009	973.194031	8.255625	0.406875	-5.831875
0.732000	-138.714005	989.786011	12.320000	-0.323750	-2.305625
-15.860001	-117.913002	989.176025	13.685000	1.133125	-0.805000
-16.469999	-103.821999	993.872986	14.546875	0.385000	0.074375
-22.143000	-81.191002	1001.803040	9.524375	-1.618750	1.330000
-33.000999	-70.150002	981.612000	7.770000	0.345625	0.665000
-20.252001	-57.827999	1011.989990	9.314375	-0.848750	0.704375
-13.359000	-68.625000	1007.109985	7.074375	-0.253750	1.413125
-23.118999	-64.355003	1007.842041	7.424375	1.526875	1.903125
-9.760000	-68.442001	1010.098999	8.465625	-1.544375	3.556875
5.002000	-72.590004	967.277039	6.632500	-2.205000	5.105625
-22.509001	-50.935001	970.937012	9.305625	0.192500	4.348750
-14.213000	-16.775000	1020.103027	9.773750	2.358125	3.128125
-24.705000	-24.217001	1005.890015	4.025000	-0.787500	4.226250
-32.879002	-33.367001	994.239014	2.419375	2.450000	4.235000
-36.600002	-30.439001	1011.014038	-1.745625	-1.881250	3.097500
-35.380001	-31.110001	1044.136963	-6.326250	-1.395625	1.080625
-55.510002	-40.199001	1040.171997	-3.285625	0.485625	0.144375
-24.888000	-51.545002	1013.880981	1.833125	-1.176875	0.704375
-24.156000	-61.427002	1001.559021	3.434375	1.071875	0.004375
-23.424000	-43.371002	1009.855042	3.666250	3.320625	0.319375
-32.390999	-28.914000	1002.291016	7.227500	4.755625	1.194375
-45.323002	-34.709000	979.965027	5.923750	4.996250	1.010625
-45.383999	-21.716000	997.350037	0.599375	5.040000	-0.708750
-56.547001	-35.380001	991.067017	-0.463750	5.376875	-1.242500
-54.778000	-39.650002	989.541992	0.065625	13.658750	-1.006250
-69.784004	-28.182001	989.419983	5.438125	3.950625	-0.345625
-67.954002	-25.437000	986.126038	11.296250	-2.712500	1.421875
-71.125999	-17.995001	968.679993	11.851875	-3.058125	2.690625
-60.512001	-5.490000	977.036987	17.438749	-2.301250	3.018750
-48.068001	8.418000	1011.807007	21.616875	0.288750	3.723125
-58.499001	15.067000	986.553040	19.022499	1.023750	5.731250
-59.414001	26.840000	958.737000	4.598125	-1.251250	6.409375
-42.090000	17.629000	973.559998	-12.411875	-3.666250	3.482500
-41.846001	1.098000	1012.539001	-24.753750	-2.205000	0.844375
-38.491001	-20.434999	1022.604004	-19.346251	-7.258125	0.083125
-36.722000	-27.755001	1058.411011	-9.563750	-4.353125	0.415625
-21.350000	-14.640000	1049.016968	-1.557500	-5.048750	-0.021875
-42.639000	-14.396000	1024.129028	5.245625	-0.306250	1.697500
-20.923000	-19.825001	972.462036	3.311875	-0.595000	1.802500
-28.243000	3.843000	1022.665039	8.124375	1.448125	-0.481250
-37.149002	-6.771000	1002.046997	9.056250	-1.137500	-0.704375
-40.260002	-11.651000	1022.786987	6.514375	-0.161875	-0.240625
-29.524000	-7.015000	1000.583008	6.658750	-0.988750	-0.743750
-24.339001	-8.540000	1001.132019	3.845625	-1.194375	-0.905625
-38.430000	-0.671000	1016.260010	1.548750	-0.507500	-1.745625
-40.992001	-2.684000	1012.234009	1.754375	0.061250	-1.981875
-32.390999	3.233000	1016.320984	2.380000	2.056250	-1.036875
-35.136002	-8.967000	994.971008	5.831875	1.863750	-0.402500
-37.453999	1.708000	1023.213989	8.216250	2.940000	0.266875
-45.932999	11.834001	999.729004	7.201250	1.299375	0.183750
-45.139999	18.239000	993.018982	-0.026250	0.380625	-0.310625
-33.793999	10.309000	990.030029	-8.089375	-1.150625	-0.910000
-34.770000	2.867000	1006.988037	-10.158750	-0.704375	0.560000
-34.647999	-4.453000	1010.708984	-8.198750	0.691250	3.145625
-50.386002	-17.141001	1029.009033	-0.406875	1.098125	1.605625
-50.507999	-6.710000	986.553040	9.773750	1.198750	-0.945000
-11.651000	3.355000	985.882019	18.186874	0.555625	-4.690000
-19.459000	10.797000	1024.860962	20.728750	-4.830000	-8.137500
-29.341000	30.927000	989.786011	24.333750	14.183750	-9.126250
-60.756001	50.081001	1024.494995	22.903126	18.606874	-6.978125
-76.737999	58.987000	999.484985	20.680626	18.690001	-5.031250
-100.223000	58.072002	982.221985	13.750625	18.549999	-4.773125
-103.456001	77.409004	1040.416016	-0.039375	19.075001	-5.683125
-102.358002	68.259003	988.260986	-9.441250	14.940625	-5.289375
-136.518005	49.776001	987.346008	-12.722500	26.573750	-5.446875
-141.397995	46.970001	946.781006	-15.566250	31.491249	-6.531875
-183.305008	51.423000	1031.327026	-13.890625	25.956875	-3.683750
-191.966995	33.916000	977.281006	-19.591249	23.226875	-1.220625
-190.807999	17.812000	995.947021	-23.677500	10.023125	0.678125
-203.434998	2.440000	999.119019	-20.566875	15.334375	1.198750
-191.052002	-20.801001	921.221985	-15.303750	8.198750	1.951250
-216.611008	-22.691999	980.026001	-12.048750	-0.717500	3.683750
-210.755005	-35.441002	920.612000	-18.129999	-8.115625	3.294375
-194.102005	-46.177002	959.713013	-18.090626	-11.112500	2.012500
-194.712006	-50.020000	986.614014	-11.589375	-10.959375	1.640625
-182.755997	-70.943001	975.817017	-8.133125	-8.863750	0.621250
-185.928009	-66.794998	994.239014	-5.783750	-7.796250	0.004375
-177.693008	-68.320000	978.806030	-4.392500	-6.492500	0.297500
-176.656006	-81.496002	982.527039	-4.838750	-4.965625	-0.105000
-175.680008	-79.117004	982.832031	-3.377500	-5.271875	0.358750
-157.867996	-83.447998	976.304993	2.795625	-8.303750	-0.113750
-163.906998	-73.749001	987.712036	6.960625	-11.313750	-0.100625
-148.596008	-73.566002	964.226990	4.637500	-16.493750	-0.030625
-135.054001	-74.664001	1003.510986	3.338125	-10.084375	-0.008750
-137.494003	-62.341999	992.531006	1.631875	-7.708750	-0.643125
-124.440002	-66.856003	991.738037	3.517500	-5.490625	-0.857500
-122.854004	-66.734001	991.981995	3.517500	-5.490625	-1.461250
-122.854004	-70.638000	1001.192993	3.158750	-5.271875	-1.461250
-118.401001	-70.638000	1001.192993	5.442500	-3.670625	-1.500625
-116.753998	-63.013000	995.642029	3.565625	-0.901250	-1.128750
-125.477005	-66.246002	1011.624023	4.348750	0.061250	-1.356250
-133.285004	-56.303001	993.202026	8.596875	-0.822500	-1.058750
-123.403000	-55.875999	995.520020	7.608125	-1.321250	-0.450625
-115.107002	-48.617001	976.854004	4.471250	-1.268750	-0.892500
-119.681999	-44.957001	985.333008	4.099375	-0.463750	-1.172500
-118.340004	-39.345001	1004.853027	7.144375	0.144375	-1.316875
-121.389999	-33.244999	989.541992	9.432500	-0.603750	-1.636250
-113.399002	-26.291000	996.069031	7.498750	-0.218750	-1.526875
-120.231003	-25.010000	988.139038	5.810000	0.074375	-1.155000
-129.380997	-26.962000	990.518005	7.223125	0.686875	-1.544375
-125.721001	-18.605000	1014.002991	7.848750	0.367500	-1.246875
-127.734001	-15.189000	991.677002	5.263125	0.096250	-0.870625
-121.695000	-17.202000	1003.694031	1.513750	0.231875	-1.032500
-112.423004	-13.847000	998.570007	-0.896875	-0.271250	-1.001875
-120.719002	-14.640000	986.919006	-0.774375	-0.923125	-1.124375
-110.471001	-14.274000	988.687988	-1.592500	-2.130625	-1.045625
-120.841003	-11.712000	1016.992004	0.323750	-3.346875	-0.459375
-115.839005	-18.849001	986.004028	2.747500	-3.753750	-1.019375
-101.625999	-15.311000	984.783997	0.188125	-2.139375	-0.866250
-114.802002	-20.923000	994.239014	-0.739375	-1.058750	-0.857500
-115.655998	-21.594000	993.324036	-0.074375	-1.846250	-1.290625
-101.625999	-21.472000	991.250000	-0.476875	-1.706250	-1.225000
-111.813004	-25.254000	984.967041	1.828750	-0.892500	-1.365000
-104.493004	-19.580999	991.554993	-0.118125	-2.318750	-1.920625
-108.823997	-21.960001	997.289001	-0.945000	-0.166250	-2.629375
-107.360001	-15.189000	999.851013	7.021875	-0.997500	-3.644375
-110.043999	-8.723001	991.432983	8.701875	-1.023750	-2.043125
-107.604004	-8.418000	984.113037	3.758125	-0.424375	-1.557500
-107.237999	-10.614000	985.638000	1.771875	-0.490000	-1.868125
-104.005005	-13.542000	991.677002	0.783125	-0.367500	-1.010625
-102.601997	-14.396000	987.346008	0.087500	-1.220625	-1.159375
-105.529999	-7.259000	1001.132019	0.328125	-1.190000	-1.303750
-108.458000	-7.442000	995.337036	-0.721875	-3.408125	-0.988750
-102.663002	-7.320000	1001.315002	-0.695625	-0.800625	-1.268750
-103.700005	-4.819000	1000.033997	0.258125	-0.761250	-0.787500
-97.904999	-10.675000	999.424011	0.936250	-0.017500	-1.115625
-103.883003	-3.111000	998.447998	2.590000	-0.135625	-1.063125
-99.857002	-13.847000	975.817017	0.100625	-1.728125	-0.621250
-107.055000	-10.919000	1018.700012	1.080625	-0.468125	-1.233750
-97.661003	-8.235000	1005.829041	3.373125	-1.898750	-0.568750
-96.989998	-19.825001	1001.742004	1.071875	-3.543750	-0.538125
-90.341003	-9.821000	988.871033	-0.188125	-1.815625	-1.041250
-96.441002	-13.908000	1002.473999	-1.518125	-0.958125	-0.831250
-97.966003	-13.054000	1002.473999	-1.588125	-1.395625	-0.516250
-95.465004	-18.300001	994.239014	-0.595000	-0.971250	-0.800625
-98.454002	-18.300001	1007.109985	0.245000	-0.590625	-0.888125
-100.528000	-12.871000	988.687988	-0.113750	-1.006250	-0.958125
-96.196999	-12.932000	992.165039	-0.402500	0.131250	-0.945000
-96.380005	-17.323999	1003.450012	0.266875	-0.918750	-0.686875
-97.234001	-14.335000	983.564026	2.288125	-1.566250	-0.931875
-90.462997	-13.786000	1001.254028	3.036250	0.122500	-1.413125
-88.450005	-10.431000	1003.510986	1.203125	-0.319375	-0.857500
-96.563004	-12.688000	1012.294983	-1.391250	-0.157500	-0.669375
-92.903000	-21.167000	996.130005	-0.866250	-0.017500	-0.743750
-90.097000	-17.750999	986.674988	-0.087500	-2.183125	-0.126875
-102.053001	-20.374001	988.444031	-1.968750	-1.745625	-0.778750
-89.426003	-18.910000	988.322021	-4.016250	-2.585625	-0.988750
-97.051003	-22.326000	995.337036	-1.588125	-1.172500	-0.953750
-93.635002	-19.764000	997.777039	0.966875	-1.465625	-1.163750
-89.487000	-21.837999	1011.989990	2.345000	-0.787500	-0.901250
-95.098999	-26.962000	999.484985	4.900000	-0.603750	-0.861875
-75.579002	-28.914000	984.174011	3.360000	-0.686875	-1.303750
-87.656998	-15.616000	977.768982	-0.516250	-0.665000	-1.198750
-82.411003	-16.836000	1008.330017	0.070000	0.358750	-1.413125
-86.253998	-17.568001	1004.182007	2.668750	-0.271250	-1.120000
-88.084000	-20.740000	1000.522034	3.381875	-0.586250	-0.866250
-89.669998	-8.052000	1002.230042	3.395000	0.144375	-1.369375
-91.622002	-15.677000	999.546021	3.080000	0.249375	-0.883750
-89.914001	-17.446001	996.007996	3.915625	0.091875	-1.233750
-96.196999	-12.993000	1001.559021	8.010625	1.732500	-1.981875
-90.707001	0.732000	985.638000	9.117500	0.463750	-1.968750
-86.925003	3.355000	1000.765991	7.411250	1.032500	-2.065000
