A_X [mg]	A_Y [mg]	A_Z [mg]	G_X [dps]	G_Y [dps]	G_Z [dps]
-10.980000	21.837999	993.812012	2.826250	11.567500	-5.573750
-58.987000	28.365000	977.952026	5.171250	9.966250	1.973125
-38.491001	37.758999	990.030029	2.073750	-2.808750	2.533125
-49.837002	53.070000	992.165039	0.870625	-2.957500	2.638125
-47.519001	34.952999	1000.765991	-8.238125	2.283750	3.246250
-77.104004	4.575000	982.100037	-9.388750	-0.389375	2.664375
-63.562000	-8.174000	1015.040039	-3.937500	-13.619375	-0.258125
-58.316002	1.586000	992.348022	5.075000	1.382500	-0.135625
-52.094002	8.479000	989.968994	4.606875	-10.583125	-1.137500
-46.299000	18.239000	1019.614990	-1.461250	-5.779375	0.730625
-47.214001	25.132000	1024.800049	-5.814375	-0.463750	1.933750
-46.604000	-1.464000	1037.427002	-10.027500	-3.342500	1.596875
-35.441002	2.013000	1057.312988	-6.431250	-2.576875	-1.785000
-41.968002	-1.891000	1013.088013	-1.207500	3.211250	-2.712500
-28.426001	-9.638000	1008.879028	-1.006250	-0.975625	-1.277500
-20.984001	-5.002000	1006.377991	-1.334375	3.871875	-1.378125
-41.723999	-32.085999	1022.481995	-6.562500	7.883750	-1.058750
-50.447002	-39.711002	1024.433960	-0.870625	2.940000	-5.547500
-30.805000	14.335000	1011.135986	-3.876250	0.892500	-3.902500
-41.968002	-7.137000	1025.714966	-5.215000	-1.456875	-1.417500
-48.434002	-18.422001	1027.911011	-0.380625	-1.198750	0.236250
-52.094002	-9.821000	1005.890015	2.743125	2.283750	1.719375
-39.040001	-14.640000	1032.912964	-1.203125	0.170625	2.253125
-45.993999	-4.087000	1008.330017	-0.389375	2.393125	2.213750
-40.138000	-12.688000	1006.134033	-0.883750	0.000000	2.800000
-41.418999	-19.276001	1030.594971	0.861875	-5.442500	0.323750
-36.112000	-16.104000	1024.006958	-4.042500	-3.110625	1.675625
-40.809002	-16.714001	1020.713013	-3.766875	-1.566250	0.625625
-39.589001	-8.540000	1001.497986	-2.056250	-1.063125	-1.198750
-28.914000	-13.847000	1021.018005	-2.450000	-3.233125	-0.437500
-17.323999	-11.712000	1018.395020	-0.210000	1.050000	0.481250
-30.866001	-11.834001	1009.549988	1.645000	0.647500	2.091250
-25.254000	-16.896999	1018.090027	1.203125	-1.286250	0.651875
-26.962000	-17.812000	1006.804993	0.310625	-1.260000	-0.437500
-19.642000	-26.779001	1005.036011	-4.370625	-0.971250	-0.358750
-21.716000	-20.923000	1021.689026	-1.540000	-4.340000	-1.155000
-19.276001	-26.840000	1023.580017	-1.120000	0.901250	0.065625
-17.507000	-34.342999	1028.886963	-2.883125	-2.835000	1.798125
-18.300001	-30.256001	1032.181030	1.898750	-1.561875	1.181250
-21.594000	-22.264999	1006.682983	2.607500	1.614375	0.678125
-9.455000	-7.381000	1024.433960	4.108125	-1.273125	0.214375
-22.691999	-3.050000	1018.822021	1.338750	1.141875	0.879375
-14.884000	7.198000	1018.273010	0.245000	-0.520625	1.225000
-12.688000	-14.701000	1015.893982	-4.217500	-0.538125	2.445625
-14.640000	-10.980000	1023.580017	-0.026250	-3.010000	-0.218750
-15.128000	-14.640000	1005.280029	0.774375	1.238125	-0.157500
-6.405000	-11.834001	1012.051025	2.327500	-2.568125	1.128750
-11.163000	8.357000	1024.860962	0.883750	-3.084375	2.813125
-0.610000	-24.583000	1017.053040	-1.732500	-7.039375	2.051875
-5.734000	-28.304001	1018.822021	-3.189375	3.185000	2.870000
-11.163000	-38.491001	1013.575989	-3.648750	3.290000	2.786875
-3.843000	-27.328001	1017.419006	-1.841875	-1.168125	1.505000
-5.307000	-25.193001	1020.713013	0.918750	0.258125	-0.625625
-5.734000	-13.725000	1016.199036	2.760625	0.529375	-1.220625
0.183000	-10.431000	1030.656006	0.542500	2.187500	-1.190000
-12.810000	-13.664001	1021.322998	4.843125	2.751875	-1.321250
-13.908000	-11.773000	1009.916016	1.802500	2.401875	0.083125
-8.906000	-22.814001	1005.890015	2.436875	2.266250	-0.275625
-1.647000	-10.004000	1028.826050	1.907500	-0.595000	-0.463750
-7.320000	-16.775000	1011.807007	-0.284375	0.214375	-1.649375
-8.723001	-14.335000	1016.138000	-0.980000	-2.222500	-2.576875
-11.956000	-9.699000	1011.075012	-0.262500	-0.761250	-2.415000
-1.525000	3.294000	1017.785034	-0.774375	-2.091250	-2.677500
1.037000	2.013000	1013.332031	-0.266875	-0.910000	-2.616250
-2.440000	-4.697000	1020.591003	-1.054375	-2.174375	-1.452500
0.366000	-0.427000	1027.789062	0.358750	-1.483125	-1.736875
-2.196000	-4.636000	1042.062988	0.708750	0.310625	-2.550625
1.464000	-6.649000	1019.309998	-1.242500	0.621250	-2.646875
-2.501000	-18.422001	1008.452026	-2.266250	2.183125	-1.588125
-0.244000	-13.115000	1012.173035	-1.671250	0.091875	-1.106875
-3.294000	-19.215000	997.044983	-1.041250	0.345625	0.328125
3.050000	-23.363001	1016.015991	-0.743750	-2.476250	0.625625
2.440000	-21.167000	1022.481995	2.021250	-3.272500	-0.126875
2.928000	-6.893000	1037.122070	2.091250	-2.970625	-0.463750
7.503000	1.464000	1016.077026	2.813125	-0.113750	-1.776250
10.431000	6.710000	1020.773987	-1.697500	0.336875	-1.623125
8.235000	-13.603000	1026.568970	1.863750	0.980000	-1.719375
0.976000	-2.684000	1009.489014	4.655000	2.270625	-0.463750
14.030000	-3.111000	1006.561035	-0.844375	1.505000	1.365000
11.834001	-13.237000	1011.197021	0.153125	0.931875	0.555625
3.416000	-3.721000	995.642029	2.388750	2.135000	1.071875
8.662000	-3.050000	1028.947998	-0.717500	-3.780000	1.487500
9.394000	-3.172000	1028.216064	3.416875	1.010625	0.748125
9.211000	2.318000	1021.445007	2.410625	1.216250	0.660625
6.832000	-0.671000	1016.809021	1.680000	1.058750	-0.980000
8.296000	6.344000	1014.186035	0.778750	0.450625	-2.349375
11.895000	2.745000	1010.403992	-1.885625	2.791250	-0.590625
8.418000	1.159000	1015.467041	3.618125	1.343125	-1.859375
-1.098000	-5.429000	1011.014038	2.362500	1.960000	-0.958125
9.089000	10.309000	1017.480042	-1.019375	0.249375	-0.406875
8.418000	7.564000	1017.296997	-1.933750	-1.325625	-1.141875
4.514000	-1.098000	1004.121033	-0.551250	-0.096250	-0.612500
5.612000	2.806000	1011.257996	-3.158750	-3.963750	-1.251250
9.760000	-2.928000	953.064026	0.931875	-3.080000	-2.738750
16.896999	10.736000	1026.385986	-2.082500	-2.638125	-2.205000
26.596001	12.200000	1030.107056	0.962500	-3.556875	-2.200625
13.664001	10.980000	1013.575989	0.840000	2.270625	1.312500
23.424000	2.440000	1020.164001	-0.043750	0.853125	1.067500
21.410999	-0.976000	1005.829041	1.815625	1.120000	-1.185625
18.056000	-3.172000	1016.687012	-2.629375	0.634375	-0.385000
24.888000	10.675000	1024.006958	-1.028125	0.183750	-0.021875
19.032000	1.342000	1019.249023	0.826875	1.461250	0.100625
23.546000	4.148000	1023.640991	0.818125	-0.770000	-0.179375
18.300001	4.758000	1012.478027	-0.441875	1.264375	0.126875
32.025002	4.392000	1014.918030	-3.718750	-1.128750	-0.284375
27.999001	2.196000	1007.658997	-4.738125	0.756875	-0.083125
21.410999	-4.758000	1013.820007	-3.701250	-1.378125	-1.540000
16.896999	5.490000	1018.517029	-0.507500	-1.938125	-2.598750
28.426001	1.891000	1020.895996	-0.630000	0.345625	-1.688750
25.010000	0.549000	1021.262024	2.152500	1.627500	-0.936250
23.668001	-7.198000	1018.700012	2.034375	0.135625	-0.498750
21.777000	-6.344000	1013.454041	-0.809375	0.266875	0.306250
25.193001	-7.259000	1018.700012	0.511875	0.021875	-1.207500
27.632999	3.599000	1011.197021	-0.424375	-1.085000	-1.496250
33.000999	10.492001	1017.053040	-3.998750	-0.192500	-1.338750
17.263000	-5.002000	1022.421021	-3.959375	-2.454375	-1.771875
27.450001	-7.808000	1022.543030	1.220625	-1.557500	-1.242500
40.077000	-8.357000	1043.405029	1.942500	-0.380625	0.525000
31.964001	-11.346000	1022.848022	1.465625	2.078125	0.319375
26.596001	1.342000	999.241028	-0.713125	2.616250	0.511875
33.000999	-7.381000	992.713989	-1.995000	-0.350000	0.201250
35.136002	7.869000	1012.234009	-1.553125	-2.183125	-1.653750
30.378000	10.309000	1029.130981	-0.896875	-4.558750	-2.594375
37.149002	-0.183000	1027.728027	4.151875	-1.417500	-2.240000
41.114002	5.612000	1013.697998	0.752500	2.073750	-0.813750
37.088001	8.357000	996.557007	1.723750	-0.087500	-2.305625
45.201000	-9.028000	1011.807007	0.533750	-0.914375	-1.916250
44.285999	1.403000	1028.765015	-2.353750	1.102500	-1.767500
26.108000	-10.492001	1011.075012	-3.154375	2.760625	-2.056250
37.453999	-6.588000	1013.148987	-5.805625	0.870625	-0.555625
38.307999	-5.307000	1018.273010	1.881250	0.393750	-0.660625
38.368999	-2.440000	1019.981018	1.649375	0.433125	1.610000
35.319000	-2.074000	1024.494995	2.384375	1.185625	1.102500
35.806999	-2.135000	1008.940002	-2.506875	1.758750	1.754375
37.576000	0.610000	1015.161987	-0.153125	0.634375	0.319375
35.014000	4.392000	1022.543030	0.708750	0.035000	-0.328125
40.077000	4.453000	1018.090027	1.855000	0.345625	1.435000
32.818001	-4.270000	1005.768005	6.343750	0.013125	0.586250
39.101002	5.002000	1005.096985	2.008125	-1.728125	0.678125
51.667000	4.392000	1047.125977	-2.209375	-0.774375	1.378125
35.319000	5.551000	1022.054993	3.395000	2.808750	-0.612500
40.199001	13.542000	1006.561035	-0.761250	1.168125	-0.542500
40.625999	18.239000	1014.918030	-3.775625	1.386875	-0.140000
42.517002	6.344000	1018.090027	2.638125	0.393750	-0.341250
37.820000	9.394000	1019.127014	1.085000	0.608125	1.470000
42.517002	10.919000	1011.624023	-0.385000	1.067500	0.393750
37.942001	7.564000	1018.639038	-1.566250	0.113750	-0.708750
38.063999	10.065001	1024.617065	-4.729375	1.316875	-0.892500
37.881001	5.612000	1019.371033	-3.530625	1.233750	-0.918750
39.161999	2.928000	1024.433960	1.898750	-0.966875	-1.553125
33.184002	13.542000	1015.406006	-1.141875	2.568125	1.763125
29.524000	3.538000	1015.772034	0.503125	2.598750	1.596875
33.367001	-3.660000	1032.119995	0.301875	-0.376250	0.446250
33.428001	-4.514000	1022.054993	2.673125	2.200625	-1.071875
32.208000	7.564000	998.875000	0.100625	2.489375	-0.542500
35.746002	10.126000	994.971008	-3.176250	0.945000	0.975625
38.063999	-1.342000	1022.421021	-0.927500	0.332500	1.268750
30.073000	2.562000	1021.262024	3.819375	-3.539375	0.756875
31.049000	3.233000	1025.348999	5.075000	-0.490000	0.245000
32.818001	15.128000	1011.746033	-4.291875	1.955625	0.227500
37.514999	2.806000	1011.135986	-6.146875	1.238125	-2.051875
36.660999	-0.122000	1007.231995	-0.205625	-0.021875	-2.025625
33.855000	7.320000	1017.114014	2.983750	-1.067500	-0.669375
30.683001	8.662000	1022.481995	1.942500	-1.010625	-0.713125
33.611000	2.928000	1024.800049	-1.513750	1.316875	-0.188125
34.647999	-0.610000	1025.654053	-2.590000	2.401875	1.120000
40.320999	-4.697000	1018.639038	1.386875	1.470000	-0.831250
31.415001	7.442000	1005.036011	-2.603125	-0.135625	-1.120000
32.269001	3.050000	1020.652039	-0.988750	-1.032500	-2.432500
34.647999	3.294000	1025.348999	-0.756875	-0.433125	-1.456875
37.820000	2.196000	1020.286011	0.564375	0.787500	-1.168125
30.256001	0.793000	1012.356018	0.599375	1.658125	-0.988750
40.015999	4.270000	1010.953003	-3.088750	1.111250	-0.656250
29.158001	-4.026000	1017.785034	-0.240625	-0.433125	-1.448125
35.563000	4.026000	1008.085999	-0.376250	1.146250	0.131250
36.844002	-0.549000	1019.614990	-1.833125	0.774375	0.301875
35.380001	-3.172000	1016.138000	-4.873750	-0.822500	-0.691250
39.589001	-11.712000	1025.044067	-4.029375	0.078750	-1.828750
36.050999	-6.100000	1023.213989	0.315000	0.546875	-1.098125
38.003002	5.490000	1017.358032	4.326875	-0.056875	-0.660625
36.112000	6.527000	1009.122986	4.418750	1.286250	-0.643125
33.306000	1.830000	1012.783020	1.828750	0.735000	-0.901250
37.758999	14.457000	1024.006958	-1.610000	0.608125	-0.332500
33.793999	0.000000	1026.630005	1.172500	2.463125	-0.831250
37.637001	-1.098000	1010.892029	1.255625	1.439375	-0.420000
36.234001	4.514000	1010.098999	0.560000	1.561875	-0.805000
34.098999	-2.928000	1018.212036	-1.491875	0.826875	-0.756875
31.110001	1.098000	1023.824036	-0.634375	1.911875	-0.455000
32.085999	3.477000	1013.575989	0.971250	1.846250	-0.288750
31.293001	0.732000	1009.671997	1.141875	0.555625	-0.297500
32.635002	7.198000	1008.695984	-0.371875	1.211875	0.030625
27.267000	10.492001	1024.739014	-1.124375	0.148750	-0.748125
26.657000	3.660000	1020.652039	0.875000	1.010625	-1.268750
28.914000	12.993000	1025.837036	0.511875	1.347500	-0.896875
26.840000	11.468000	1008.817993	-0.323750	0.975625	-0.516250
28.609001	7.686000	1011.989990	-0.463750	1.111250	0.039375
31.903000	2.623000	1022.908997	0.131250	-0.586250	0.853125
25.375999	3.965000	1029.802002	3.062500	1.010625	-0.428750
29.951000	12.383000	1019.187988	-0.896875	0.713125	-0.223125
31.354000	5.368000	1015.772034	-2.651250	2.441250	-0.153125
29.280001	7.015000	1013.454041	-1.316875	0.389375	-0.043750
28.792000	0.610000	1014.552002	1.093750	1.268750	1.308125
28.609001	7.442000	1020.713013	2.961875	-0.105000	0.402500
30.500000	15.921000	1014.918030	1.338750	-0.170625	-0.161875
31.842001	5.856000	1014.552002	-2.813125	0.901250	-0.293125
29.036001	17.263000	1007.720032	-1.815625	0.564375	-0.931875
25.864000	9.699000	1023.031006	0.266875	-1.010625	-0.787500
28.426001	6.832000	1016.809021	0.621250	0.520625	-0.796250
30.927000	2.257000	1013.332031	-0.958125	0.249375	-0.621250
29.402000	7.320000	1018.760986	-0.385000	-0.678125	-0.358750
29.829000	1.342000	1008.147034	-0.367500	0.888125	-0.091875
31.842001	-0.732000	1029.070068	0.625625	-0.533750	-1.526875
31.110001	10.492001	1021.872009	-1.750000	0.157500	-1.653750
37.271000	9.028000	1022.604004	-2.165625	1.977500	-0.516250
32.208000	5.002000	1008.085999	0.621250	1.636250	-0.240625
34.526001	6.344000	1014.796021	-1.242500	1.443750	1.076250
31.293001	-3.355000	1015.833008	-0.148750	0.437500	0.074375
33.306000	3.477000	1017.358032	0.223125	1.067500	-0.590625
35.929001	7.503000	1012.600037	-0.826875	0.446250	-0.301875
31.476000	2.257000	1015.040039	1.723750	-0.245000	-0.262500
27.694000	8.418000	1011.014038	1.981875	0.004375	-1.308125
25.802999	14.213000	1017.663025	-0.748125	-0.984375	-1.951250
38.368999	6.222000	1013.575989	-1.246875	0.306250	-1.636250
27.938000	2.440000	1014.186035	0.726250	0.428750	-1.006250
34.587002	-1.342000	1032.425049	-0.070000	-0.481250	-0.328125
22.631001	-1.525000	1018.639038	3.460625	2.594375	-2.953125
28.182001	18.849001	1011.135986	-1.645000	1.207500	-1.828750
38.979000	23.180000	1004.791992	-4.580625	1.421875	-0.420000
29.889999	9.760000	1009.428040	-0.144375	2.240000	-0.660625
29.646000	3.782000	1019.127014	1.185625	0.700000	-0.048125
22.143000	3.965000	1019.676025	2.585625	0.717500	-0.293125
30.805000	9.638000	1016.869995	0.231875	0.778750	-0.560000
32.452000	17.019001	1010.221008	-1.951250	1.675625	-0.433125
30.743999	8.235000	1016.442993	-0.516250	0.875000	-0.297500
27.632999	9.272000	1018.090027	1.093750	0.735000	-0.030625
24.888000	8.662000	1025.531982	1.334375	0.319375	-0.148750
24.766001	13.542000	1012.721985	0.735000	1.876875	-0.091875
32.513000	13.237000	1013.637024	-1.675625	0.332500	0.148750
25.559000	8.662000	1017.968018	-0.971250	0.345625	-1.548750
22.691999	8.357000	1023.153015	-0.192500	0.682500	-1.338750
31.415001	7.564000	1023.335999	0.805000	1.378125	-0.354375
24.034000	14.579000	1019.187988	1.496250	1.649375	-0.293125
19.032000	7.991000	1009.428040	-0.433125	1.500625	0.813750
26.779001	11.834001	1019.127014	-0.625625	0.647500	0.078750
23.302000	7.991000	1012.234009	0.787500	0.809375	-0.800625
30.622000	13.664001	1021.994019	-1.111250	1.054375	-0.109375
27.877001	11.102000	1008.452026	0.210000	1.456875	-0.048125
26.413000	13.908000	1017.785034	0.503125	0.630000	-0.196875
27.145000	17.507000	1014.674011	0.052500	0.030625	-0.280000
24.583000	8.418000	1016.747986	0.743750	0.673750	-0.161875
20.862000	13.786000	1013.575989	-0.875000	0.227500	-0.021875
23.729000	12.444000	1014.796021	-2.143750	0.021875	0.026250
20.007999	9.638000	1030.900024	0.564375	-0.743750	-1.653750
24.217001	13.664001	1014.918030	-1.185625	1.776250	-0.643125
27.023001	11.285000	1025.531982	-0.428750	0.516250	-0.463750
21.350000	5.612000	1016.565002	0.441875	-0.332500	-0.210000
31.903000	12.322001	1015.772034	-1.478750	1.605625	0.153125
19.947001	5.368000	1015.893982	0.008750	0.157500	-1.299375
24.339001	10.614000	1015.161987	-0.923125	0.284375	-0.380625
35.319000	9.455000	1012.843994	-0.131250	0.052500	-0.752500
24.400000	18.605000	1018.212036	-1.102500	0.091875	-0.923125
19.398001	4.514000	1018.151001	-0.835625	0.056875	-0.905625
28.243000	12.566000	1013.575989	0.861875	0.463750	-0.743750
34.342999	10.492001	1017.601990	-0.538125	-0.892500	-0.752500
21.777000	6.649000	994.299988	-0.546875	-1.373750	-1.719375
37.637001	19.459000	1035.841064	-5.884375	-2.056250	-0.420000
34.831001	-6.222000	1023.335999	-0.249375	1.382500	-0.914375
35.257999	5.551000	1028.093994	3.640000	0.765625	-0.918750
28.670000	7.808000	1002.901001	3.863125	0.433125	-0.945000
30.927000	17.080000	1016.747986	2.305625	-0.402500	-0.918750
31.659000	14.518001	1020.164001	-1.400000	0.791875	0.109375
28.182001	12.200000	1011.014038	-0.008750	0.678125	-1.089375
31.598000	8.052000	1012.478027	-3.775625	0.310625	-0.402500
37.088001	2.318000	1024.433960	-1.190000	0.971250	-0.656250
29.646000	7.198000	1017.114014	0.494375	0.052500	-0.183750
33.428001	12.627000	1025.531982	1.872500	0.328125	-0.196875
25.986000	12.444000	1008.452026	-1.715000	1.386875	-1.334375
31.537001	17.202000	1026.935059	-2.743125	-0.853125	-1.876875
39.101002	13.054000	1030.656006	-0.936250	0.910000	-1.172500
30.500000	16.348000	999.119019	-0.796250	3.443125	0.621250
29.524000	3.416000	1011.380005	0.818125	-1.684375	0.166250
33.793999	5.856000	1039.256958	1.338750	0.691250	0.323750
31.720001	7.686000	1017.968018	0.393750	2.931250	-0.179375
30.195000	14.335000	1021.872009	-0.315000	1.452500	-0.581875
27.572001	18.483000	1007.781006	-0.857500	2.673125	0.573125
27.450001	9.882000	1016.320984	-0.581875	0.997500	0.844375
28.426001	-0.183000	1023.518982	1.684375	1.106875	0.350000
28.670000	16.042999	1026.264038	-0.380625	3.290000	1.137500
24.461000	6.588000	1007.598022	-1.907500	2.384375	0.669375
26.535000	9.882000	1024.921997	-0.183750	0.520625	0.161875
25.620001	16.775000	1006.804993	1.806875	2.213750	-0.035000
20.862000	15.311000	1020.041992	-0.459375	0.476875	-0.533750
15.555000	15.799000	1011.502014	-0.940625	1.553125	-0.161875
21.106001	18.422001	1016.320984	-1.098125	0.533750	0.227500
24.278000	12.688000	1035.780029	-1.500625	1.273125	0.975625
27.267000	10.004000	1016.260010	-0.008750	3.578750	2.012500
17.873001	6.344000	1007.293030	-1.404375	-0.319375	0.669375
25.864000	-2.440000	1026.447021	-4.410000	1.645000	-0.577500
11.224000	3.538000	1013.942017	0.590625	0.918750	-1.780625
16.409000	3.111000	1016.504028	2.161250	0.245000	-0.118125
18.177999	6.649000	1013.393005	1.041250	1.264375	0.485625
17.507000	12.017000	1023.640991	-1.645000	-0.262500	-0.210000
18.056000	12.566000	1015.283997	-0.831250	1.544375	0.669375
14.396000	1.647000	1015.833008	1.155000	0.529375	0.157500
19.337000	16.653000	1025.958984	1.583750	-0.091875	-0.708750
12.505000	16.653000	1010.770020	0.459375	1.846250	-0.581875
19.153999	21.289000	1015.650024	-1.115625	1.093750	-0.516250
16.348000	9.150001	1010.892029	-0.949375	1.085000	-0.455000
25.193001	7.808000	1019.492981	0.275625	0.332500	-0.070000
18.239000	10.492001	1012.112000	0.984375	0.516250	0.126875
17.446001	7.686000	1016.992004	0.048125	0.258125	0.087500
22.387001	6.710000	1019.187988	-0.953750	-0.148750	-0.870625
20.618000	15.921000	1015.772034	-1.063125	1.185625	-1.063125
16.653000	7.503000	1020.773987	-1.723750	0.485625	-0.638750
11.834001	17.385000	1016.931030	0.166250	-0.358750	-0.284375
21.045000	16.531000	1016.626038	-0.774375	1.120000	0.109375
17.323999	9.882000	1012.356018	-2.323125	0.030625	0.043750
21.350000	5.551000	1014.796021	0.546875	-0.538125	-0.608125
26.413000	16.042999	1023.580017	0.573125	-0.105000	-0.490000
16.287001	16.287001	1010.648010	-0.126875	0.669375	-0.678125
14.213000	3.294000	1024.617065	-1.080625	0.586250	-0.927500
12.688000	2.440000	1015.772034	-0.953750	0.275625	-0.546875
21.289000	6.954000	1014.552002	-1.824375	0.918750	-0.542500
19.947001	0.976000	1012.356018	-0.748125	-0.061250	-0.389375
22.814001	2.440000	1014.918030	-1.815625	0.437500	-1.045625
22.387001	7.442000	1021.932983	-1.010625	-0.551250	-1.137500
17.141001	6.588000	1008.330017	-0.498750	0.682500	-0.936250
17.446001	6.283000	1012.661011	-1.605625	-2.226875	-0.389375
24.034000	3.050000	1036.328979	0.148750	-0.980000	-0.971250
21.716000	2.440000	1018.822021	-1.120000	1.115625	-0.861875
31.293001	-1.708000	1020.773987	-2.861250	0.669375	-1.448125
24.156000	-13.664001	1015.161987	2.458750	-0.070000	-3.027500
24.400000	13.481000	1019.309998	0.861875	-0.301875	-1.019375
25.802999	4.819000	1026.264038	1.417500	-0.048125	0.411250
24.827000	13.359000	1012.721985	0.586250	0.472500	0.249375
27.511000	11.651000	1012.783020	-1.032500	1.176875	0.258125
23.668001	8.601000	1018.944031	-1.102500	1.496250	-0.118125
25.620001	3.599000	1009.671997	0.581875	0.560000	-0.210000
28.365000	9.699000	1021.811035	1.369375	0.809375	0.590625
23.118999	7.442000	1022.054993	-1.557500	1.767500	1.045625
22.570000	1.098000	1030.777954	-2.559375	1.028125	-0.105000
19.215000	5.856000	1009.367004	-1.662500	3.158750	0.223125
15.067000	7.076000	1007.354004	1.001875	1.785000	0.525000
22.021000	9.089000	1015.345032	-0.953750	0.660625	1.211875
23.729000	0.549000	1022.359985	-0.153125	1.028125	0.848750
22.631001	3.233000	1022.786987	-2.266250	2.546250	0.940625
25.742001	7.747000	1020.346985	-1.076250	1.378125	0.262500
16.958000	7.137000	1017.419006	0.402500	2.848125	0.577500
16.836000	0.366000	1011.441040	-0.065625	1.732500	1.251250
12.566000	8.601000	1012.356018	2.012500	0.135625	-0.026250
12.261000	2.684000	1015.528015	0.065625	0.805000	0.166250
20.374001	7.442000	1018.944031	0.691250	0.319375	0.013125
9.516000	-0.183000	1007.171021	2.441250	1.579375	0.542500
22.143000	8.296000	1016.747986	1.675625	-0.612500	0.713125
13.969000	8.967000	1011.746033	-0.940625	0.380625	0.258125
15.250000	4.697000	1022.359985	-0.678125	-0.126875	-0.879375
16.531000	-2.074000	1021.140015	-1.614375	0.691250	0.100625
13.542000	10.065001	1002.901001	0.516250	0.669375	-1.023750
16.653000	7.564000	1020.713013	-0.538125	-2.633750	-1.627500
19.703001	9.028000	1031.692993	1.080625	-0.345625	-1.605625
17.446001	5.246000	1016.260010	-2.388750	1.295000	-0.310625
22.997000	2.684000	1010.526001	-1.098125	0.656250	-0.682500
16.042999	1.098000	1014.429993	-0.949375	-0.415625	-0.966875
13.237000	3.050000	1014.796021	0.013125	0.910000	-0.192500
28.243000	3.660000	1016.931030	0.122500	-2.572500	-0.844375
22.264999	3.294000	1018.700012	-4.501875	-2.056250	-0.752500
32.085999	-8.479000	1015.588989	-3.491250	-4.519375	-1.653750
23.302000	2.562000	1006.744019	2.415000	0.402500	-2.331875
22.082001	6.710000	1009.855042	1.973125	-1.688750	-1.505000
31.293001	15.067000	1020.652039	2.471875	-1.426250	-1.299375
35.319000	10.065001	1012.478027	0.840000	-0.459375	0.008750
42.334000	1.342000	1026.385986	-0.135625	0.000000	-0.616875
31.964001	7.259000	1014.613037	0.175000	-1.028125	-0.459375
29.585001	4.026000	1025.166016	-1.198750	-0.651875	-0.056875
31.476000	0.732000	1013.637024	-2.086875	1.137500	-0.660625
38.857002	0.488000	1016.747986	-0.848750	0.354375	0.218750
36.844002	1.708000	1018.700012	2.244375	0.433125	0.529375
29.524000	3.843000	1015.772034	2.073750	-0.004375	0.043750
30.743999	9.333000	1028.093994	-1.356250	1.058750	0.258125
33.733002	3.477000	1016.382019	1.824375	0.459375	-0.949375
34.647999	4.270000	1017.419006	0.249375	1.343125	0.560000
31.903000	7.320000	1019.371033	0.831250	0.643125	0.494375
32.695999	3.538000	1029.070068	-0.673750	0.616875	-0.249375
30.743999	-2.318000	1017.296997	0.030625	2.016875	-0.096250
26.291000	10.736000	1022.786987	-0.323750	1.290625	-0.140000
34.831001	7.564000	1010.403992	-0.612500	1.417500	-0.144375
28.059999	4.453000	1007.415039	-1.509375	2.804375	0.739375
29.646000	4.026000	1013.637024	-0.393750	0.730625	0.525000
31.049000	4.575000	1024.373047	2.257500	0.940625	-0.748125
28.914000	9.699000	1021.018005	1.623125	1.268750	-0.332500
22.264999	8.174000	1005.890015	1.159375	2.069375	-0.406875
30.683001	8.174000	1015.955017	2.765000	-2.454375	-2.756250
27.694000	11.712000	1017.419006	-5.425000	2.515625	0.118125
32.146999	1.098000	1029.497070	-1.776250	1.058750	-0.651875
31.781000	4.819000	1020.713013	3.093125	3.010000	-1.128750
31.354000	16.226000	1004.548035	3.679375	2.012500	-0.463750
22.509001	26.230000	995.580994	4.803750	0.463750	-0.638750
20.618000	17.202000	1046.088989	-3.416875	-0.144375	0.223125
31.781000	1.891000	1047.552979	-3.381875	4.812500	-0.192500
21.228001	-1.647000	997.289001	-0.245000	5.989375	-0.931875
22.326000	10.492001	973.926025	2.690625	2.432500	0.008750
14.213000	24.827000	976.488037	4.843125	-0.616875	0.406875
20.007999	19.215000	1053.104004	-2.205000	-3.381875	1.408750
19.093000	8.052000	1057.374023	-2.371250	2.051875	-0.721875
23.302000	15.982000	1002.046997	-3.373125	3.885000	-1.172500
27.450001	11.590000	999.790039	-1.080625	1.850625	-0.376250
19.153999	6.161000	1002.840027	2.275000	0.542500	0.612500
18.177999	23.118999	1025.410034	0.783125	0.901250	0.818125
14.884000	20.434999	1019.492981	3.228750	-0.021875	-0.371875
16.836000	25.132000	1023.213989	1.137500	1.881250	0.573125
14.640000	23.668001	1015.283997	-0.218750	3.001250	1.290625
7.808000	18.910000	1000.643982	2.069375	2.498125	1.465625
3.782000	17.263000	1015.345032	4.033750	0.297500	1.942500
18.422001	25.925001	1021.140015	0.398125	0.805000	0.971250
10.126000	22.143000	1018.455994	-2.695000	0.936250	-0.170625
13.786000	29.402000	1009.306030	-0.577500	0.695625	0.756875
16.348000	18.544001	1013.454041	0.061250	0.056875	2.660000
10.370000	19.153999	1016.626038	0.660625	-0.551250	1.933750
20.679001	22.570000	1019.249023	-0.398125	-0.380625	0.367500
24.461000	23.546000	1021.994019	-6.278125	0.336875	-0.525000
10.797000	28.792000	1017.114014	-3.373125	0.853125	-0.861875
14.884000	23.668001	1004.975037	2.003750	-0.389375	0.665000
25.193001	26.169001	1020.468994	1.697500	-1.190000	0.673750
21.167000	14.945000	1016.992004	0.503125	-0.927500	-1.128750
17.080000	22.753000	1011.624023	-1.260000	-0.835625	-1.588125
20.252001	16.409000	1012.234009	-1.575000	-0.704375	-0.638750
22.204000	16.042999	1040.721069	-0.017500	-1.036875	-0.914375
22.204000	14.762000	1038.525024	-2.078125	0.949375	-0.826875
22.570000	10.736000	991.554993	-1.531250	2.310000	-1.286250
33.123001	13.664001	1004.426025	-3.640000	-1.006250	-1.658125
21.960001	11.224000	1008.940002	-3.276875	-0.980000	-1.662500
20.618000	7.991000	1029.192017	0.739375	-2.051875	0.004375
21.533001	5.246000	1032.119995	3.486875	-0.013125	0.354375
33.977001	14.518001	1026.751953	-0.393750	-0.328125	-0.336875
22.264999	19.337000	1015.893982	-1.579375	1.465625	-1.019375
23.729000	16.348000	1019.249023	1.124375	-0.280000	-1.500625
25.071001	18.361000	1017.601990	-0.420000	1.260000	0.367500
22.691999	17.934000	1012.478027	2.502500	0.634375	-0.481250
28.609001	17.690001	1013.515015	0.122500	0.673750	-0.218750
34.342999	17.873001	1019.859009	-1.640625	-0.271250	-0.800625
30.378000	16.287001	1019.127014	0.192500	0.323750	-2.104375
30.439001	30.378000	1001.742004	2.279375	0.376250	-1.579375
26.230000	27.267000	1019.981018	0.371875	-0.481250	-0.958125
27.328001	21.106001	1024.739014	0.433125	0.595000	-0.813750
28.609001	18.177999	1003.450012	2.384375	0.665000	-0.844375
24.278000	6.405000	1009.244995	-0.857500	0.896875	0.700000
34.831001	7.320000	1031.327026	-1.400000	-1.719375	-0.175000
35.075001	8.784000	1043.222046	-1.701875	0.354375	-0.866250
23.973000	23.851000	1011.075012	0.275625	2.003750	-1.295000
26.352001	29.280001	1012.966003	1.522500	0.175000	-1.071875
31.598000	29.768000	1022.481995	0.021875	1.776250	1.680000
25.132000	34.952999	1011.867981	3.333750	1.662500	1.693125
15.250000	35.746002	1006.866028	4.991875	1.828750	2.458750
30.500000	40.015999	1024.190063	2.073750	0.218750	1.728125
24.095001	35.624001	1014.491028	0.853125	2.003750	0.315000
19.093000	30.134001	1015.772034	-0.651875	1.080625	-0.603750
28.121000	26.718000	1028.765015	2.139375	0.511875	-1.124375
27.084000	23.790001	1018.517029	2.148125	1.242500	-0.643125
32.757000	15.860001	1006.744019	-0.800625	2.961875	0.398125
23.912001	20.130001	1006.682983	-0.721875	-0.258125	-0.612500
25.864000	26.596001	1025.837036	1.513750	-0.568750	-1.286250
23.302000	34.098999	1030.167969	-1.868125	0.678125	-0.140000
31.110001	34.160000	1022.481995	-1.728125	1.916250	-0.135625
18.788000	37.820000	1012.783020	0.630000	0.599375	0.568750
18.361000	34.342999	1019.919983	0.551250	2.205000	1.063125
22.631001	38.430000	1014.918030	2.279375	0.691250	-0.140000
21.594000	36.539001	1019.005005	0.179375	2.953125	0.000000
19.337000	35.441002	1011.502014	-1.767500	0.118125	-0.402500
23.729000	38.491001	1023.458008	0.665000	0.883750	-0.752500
21.167000	39.161999	1009.976990	0.822500	1.981875	0.266875
20.374001	37.271000	1017.785034	-0.485625	-0.021875	-0.336875
21.960001	30.073000	1010.708984	-2.148125	0.494375	-0.520625
13.908000	33.793999	1003.816040	-1.898750	0.245000	-0.135625
25.802999	39.040001	1017.296997	0.630000	-1.636250	-0.879375
22.691999	34.831001	1018.212036	3.342500	0.568750	0.192500
32.818001	31.476000	1041.574951	-1.172500	3.561250	0.905625
13.298000	33.123001	1014.613037	0.354375	1.526875	-2.170000
21.716000	42.334000	1028.765015	-2.821875	-0.966875	-2.310000
17.690001	43.066002	1017.723999	-3.154375	2.393125	-0.437500
17.385000	41.114002	1017.296997	1.881250	0.039375	-0.476875
20.679001	38.735001	1006.682983	1.076250	0.625625	1.645000
27.084000	26.596001	1026.568970	-0.805000	-0.293125	2.113125
14.213000	18.971001	1007.842041	-2.135000	2.143750	1.610000
15.555000	20.923000	1021.567017	-5.626250	0.949375	0.590625
14.457000	21.716000	1024.921997	-2.165625	0.840000	-0.656250
23.058001	30.195000	1017.785034	2.576875	1.268750	-0.490000
11.834001	49.166000	979.843018	3.806250	0.070000	-0.791875
30.316999	40.199001	1031.631958	-3.451875	-2.865625	0.411250
23.485001	20.984001	1034.255005	-0.083125	0.310625	0.936250
16.409000	18.910000	1013.880981	-0.096250	2.721250	2.034375
21.045000	30.683001	1010.892029	-2.178750	-1.299375	-0.358750
32.695999	30.988001	1009.306030	-1.185625	1.850625	-1.942500
24.095001	40.138000	1020.103027	-1.041250	0.896875	-0.634375
18.910000	28.243000	1012.721985	0.546875	1.732500	0.446250
17.385000	24.521999	1011.135986	0.091875	2.156875	1.540000
11.529000	21.594000	1019.249023	-0.240625	1.338750	0.192500
15.250000	33.306000	1038.402954	-1.041250	0.245000	-0.988750
10.248000	19.825001	1041.087036	2.095625	2.555000	-2.073750
12.627000	29.646000	1006.927002	1.833125	3.342500	-1.483125
12.322001	18.177999	1001.986023	-1.421875	1.894375	-1.251250
14.396000	27.999001	1006.072998	-4.296250	0.805000	-0.997500
8.540000	23.302000	1025.348999	-1.006250	1.421875	-1.076250
9.272000	33.306000	1020.835022	3.171875	1.045625	0.039375
19.398001	35.257999	1016.626038	1.575000	1.868125	0.905625
12.078000	36.295002	1005.158020	1.369375	2.191875	-0.840000
12.932000	35.136002	997.898987	-2.476250	1.793750	-0.389375
16.592001	30.256001	1026.568970	-0.310625	1.080625	-1.242500
14.030000	25.010000	1017.541016	3.915625	2.931250	-2.240000
7.076000	34.647999	1005.036011	3.084375	2.808750	-1.929375
7.381000	37.332001	1022.177002	-1.198750	-0.144375	-1.999375
8.784000	35.014000	1013.270996	-0.936250	2.725625	-1.868125
16.592001	34.770000	1017.053040	-2.051875	-0.218750	-1.732500
-0.366000	27.023001	1024.250977	-1.981875	0.126875	-0.774375
-0.122000	27.938000	1020.895996	-0.857500	2.038750	-0.074375
0.854000	42.090000	1012.843994	0.796250	1.596875	-0.634375
-0.244000	33.549999	1016.015991	1.111250	2.345000	0.140000
1.342000	38.491001	1029.557983	0.809375	1.456875	0.332500
11.163000	29.097000	1027.911011	-1.561875	4.427500	-0.831250
-4.270000	25.132000	1010.403992	-2.021250	1.238125	-1.890000
2.623000	31.659000	1016.809021	-1.325625	2.301250	-0.844375
-4.148000	22.204000	1014.186035	0.389375	3.298750	-0.752500
-2.928000	33.367001	1002.962036	0.240625	-0.048125	-0.533750
-8.906000	25.071001	1017.114014	-1.960000	-2.913750	-0.083125
0.061000	36.722000	1032.729980	-1.128750	-1.386875	0.126875
-1.464000	27.999001	1023.458008	-1.456875	0.743750	-0.078750
-5.795000	32.025002	1007.781006	-1.916250	2.642500	-1.299375
-6.588000	29.097000	1013.027039	-2.616250	0.083125	-1.260000
2.074000	27.328001	1031.448975	-1.443750	0.288750	0.345625
-3.843000	32.452000	1015.161987	-0.078750	1.505000	0.503125
-5.185000	24.461000	1023.213989	-1.150625	1.544375	-0.393750
-4.880000	27.023001	1027.484009	1.168125	8.833125	-0.603750
-9.089000	34.342999	1024.494995	4.536875	27.628124	1.378125
-39.406002	37.758999	1003.877014	12.061875	54.547501	0.472500
-69.479004	37.881001	994.788025	0.691250	22.378124	1.715000
-87.656998	29.097000	1011.746033	0.643125	13.431250	1.010625
-89.426003	26.779001	1017.968018	1.303750	12.538750	0.341250
-98.087997	35.014000	1008.817993	-0.153125	9.253125	0.144375
-120.048004	47.214001	1027.545044	-1.058750	11.799375	-0.074375
-125.781998	38.552002	1013.820007	-3.889375	21.122499	0.936250
-140.848999	50.142002	1039.013062	-19.512501	8.894375	3.486875
-167.201004	14.579000	1015.650024	-23.922501	16.900625	1.330000
-169.091995	-33.855000	962.518982	-18.090626	10.364375	-0.988750
-150.792007	-16.592001	971.913025	-11.965625	2.896250	-1.995000
-146.278000	-20.984001	989.176025	-3.268125	-2.069375	-2.996875
-167.628006	1.037000	1010.160034	1.863750	-8.163750	-2.471875
-149.206009	-9.333000	1010.221008	-5.092500	-2.743125	-1.233750
-139.568008	-22.387001	994.239014	-9.397500	-8.846250	-3.635625
-143.350006	-11.102000	983.380981	-9.944375	-43.977501	-1.045625
-56.424999	-55.875999	1035.474976	-6.549375	-83.623749	2.865625
-8.967000	-48.678001	1044.930054	-4.436250	-39.151875	3.368750
-9.882000	-58.499001	1018.700012	-5.547500	-22.789375	-1.509375
-0.915000	-53.680000	1027.605957	-5.481875	-13.265000	-0.511875
7.625000	-52.459999	1014.186035	0.450625	1.124375	0.835625
3.294000	-55.937000	1007.476013	2.489375	1.513750	0.875000
-5.612000	-59.535999	988.687988	-1.452500	-1.137500	0.227500
53.070000	-62.098000	1009.489014	-8.535625	1.089375	7.608125
9.577000	-56.119999	1030.594971	-4.948125	-5.713750	-0.568750
20.434999	-48.129002	1029.009033	5.788125	-6.790000	-4.138750
22.570000	-40.869999	983.075989	27.413750	-8.911875	-8.133125
38.063999	-76.677002	954.528015	33.696251	-11.217500	-11.305000
14.579000	-4.148000	1034.803955	12.403125	16.782499	-2.266250
2.013000	23.851000	1022.604004	10.530625	8.036875	1.885625
23.241001	-23.424000	1061.217041	6.750625	8.220625	2.423750
0.305000	2.684000	1019.919983	0.634375	17.591875	3.578750
-28.426001	23.912001	962.335999	-1.386875	1.268750	0.914375
115.717003	37.758999	1017.601990	5.359375	-18.620001	2.581250
-20.007999	-11.346000	1035.780029	3.565625	5.678750	4.116875
-1.647000	7.686000	1034.133057	1.946875	1.780625	0.857500
-2.135000	2.806000	1005.218994	-3.898125	4.116875	-1.246875
0.427000	39.466999	997.655029	4.602500	6.846875	0.109375
-18.483000	21.899000	1011.197021	11.173750	8.946875	-2.086875
-17.202000	9.516000	1048.468018	19.538750	17.941875	-5.337500
-37.393002	40.199001	1019.919983	29.522499	14.783125	-4.484375
-51.240002	68.381004	1007.171021	29.964375	20.803125	-4.305000
-54.046001	100.833000	1019.554016	17.285625	13.868750	-4.090625
-73.078003	115.412003	1004.669983	3.880625	10.832500	-2.489375
-82.837997	114.497002	1011.135986	-3.981250	9.030000	-1.413125
-82.349998	99.186005	1003.205994	-3.880625	8.312500	-0.818125
-85.827003	99.857002	1002.230042	-9.900625	9.371250	-2.104375
-96.501999	90.097000	1005.890015	-17.591875	10.854375	-2.410625
-99.674004	64.416000	1004.731018	-17.119375	11.239375	-1.885625
-113.338005	52.459999	995.458984	-14.538125	5.945625	-2.104375
-114.252998	44.529999	1005.218994	-16.703751	-0.140000	-1.439375
-116.205002	30.866001	1003.694031	-21.542500	-0.993125	-1.181250
-107.542999	17.323999	992.835999	-23.655624	-4.598125	-1.876875
-110.410004	-20.374001	984.296021	-17.080000	-11.156250	-2.581250
-82.532997	-21.167000	1031.571045	-13.335000	-18.361876	-1.500625
-76.250000	-0.976000	1036.755981	-8.190000	-7.910000	-0.402500
-78.628998	-20.069000	1003.999023	-7.415625	-2.760625	0.787500
-67.344002	-16.469999	1025.410034	-5.180000	-3.858750	1.400000
-68.137001	-41.174999	1031.631958	-0.463750	-0.105000	4.169375
-64.903999	-34.038002	1002.718018	-3.635625	-3.342500	3.145625
-60.695000	-41.541000	984.845032	-12.915000	-14.008750	-0.301875
-26.230000	-33.489002	1000.156006	-22.575001	-26.901875	-3.263750
-14.335000	-56.547001	1015.955017	-19.061874	-27.890625	-5.355000
-17.446001	-84.667999	999.302002	-4.480000	-39.125626	-3.084375
28.548000	-87.718002	1064.693970	9.178750	-18.584999	-1.907500
28.975000	-74.664001	1037.975952	7.061250	-0.231875	0.630000
29.402000	-74.664001	1016.442993	2.690625	-3.552500	-0.997500
36.417000	-83.204002	1018.760986	1.321250	-1.023750	-2.082500
39.101002	-62.159000	1012.416992	0.367500	0.945000	-1.640625
25.864000	-56.181000	1016.809021	8.172500	0.297500	-2.638125
31.903000	-42.395000	997.716003	11.029375	-0.393750	-1.470000
32.939999	-30.683001	984.479004	19.635000	-1.443750	-4.143125
48.434002	-28.304001	1024.556030	19.123125	-4.025000	-4.641875
55.327000	-0.122000	1055.056030	10.250625	-1.837500	-2.043125
32.939999	5.917000	1028.643066	10.508750	5.092500	-3.053750
35.990002	-5.429000	1025.287964	11.453750	4.795000	-1.706250
27.755001	9.028000	1006.317017	9.270625	6.343750	1.085000
36.050999	17.629000	1001.986023	9.861250	5.884375	-1.001875
33.549999	32.085999	1020.835022	3.543750	2.397500	-0.415625
22.204000	27.084000	1008.513000	0.345625	5.324375	3.058125
16.775000	20.679001	1037.061035	4.033750	8.968750	1.850625
9.455000	32.513000	1007.720032	-1.964375	14.039375	0.888125
-3.050000	30.988001	1018.578003	-1.251250	18.318125	0.840000
-20.862000	40.382000	1001.742004	-3.066875	19.748751	1.439375
-37.576000	26.718000	1018.455994	-0.796250	6.720000	0.765625
-25.802999	32.695999	1023.945984	-1.911875	3.036250	0.542500
-32.818001	21.106001	1011.989990	-2.178750	1.627500	0.096250
-31.354000	22.997000	1017.601990	-2.130625	-0.091875	0.183750
-34.160000	21.106001	1017.114014	-2.467500	1.798125	1.006250
-26.291000	15.860001	1018.273010	-0.910000	-0.450625	0.398125
-25.437000	13.725000	1010.098999	-3.268125	1.715000	0.612500
-23.790001	20.557001	1027.911011	-8.548750	-3.876250	0.717500
-31.842001	7.198000	1019.005005	-6.142500	-2.043125	-0.564375
-22.875000	5.551000	1001.070984	-2.502500	-5.455625	-0.472500
-12.261000	-3.965000	996.617981	-5.009375	-19.175625	-0.809375
22.997000	-15.860001	1014.307983	-11.112500	-47.490623	-3.163125
45.688999	-11.163000	1038.708008	-2.856875	-9.104375	-2.594375
38.125000	-11.346000	1010.526001	3.084375	0.726250	-2.760625
40.869999	8.967000	1006.804993	2.318750	-0.420000	-0.293125
38.186001	1.830000	1022.848022	2.935625	3.911250	-0.783125
30.927000	0.732000	1019.676025	-0.135625	3.211250	-0.599375
37.209999	0.427000	1026.324951	1.588125	1.680000	-0.993125
33.549999	-4.148000	1020.346985	6.921250	2.191875	-1.575000
37.637001	16.836000	1020.225037	14.406875	-2.909375	-2.235625
40.869999	30.622000	1049.260986	20.448750	-3.578750	-3.158750
53.497002	39.771999	1061.094971	29.373751	-3.893750	-6.273750
52.338001	64.111000	1056.031982	28.371876	8.120000	-5.477500
35.501999	78.323997	1008.757019	20.378750	8.513750	-1.588125
21.045000	71.858002	970.632019	2.905000	17.198126	-0.350000
10.614000	88.633003	984.967041	-10.307500	10.517500	0.643125
-1.525000	70.333000	981.062988	-24.338125	16.870001	5.022500
-7.808000	58.926003	1002.535034	-32.571877	14.293125	8.268750
-19.947001	30.012001	991.372009	-35.441875	11.676875	8.548750
-14.579000	4.087000	993.812012	-32.296249	6.055000	8.719375
-24.217001	-11.285000	1016.138000	-19.551874	0.805000	4.515000
-27.328001	-26.291000	1031.754028	2.485000	-3.325000	-0.468125
-13.481000	-27.755001	1033.279053	12.880000	-1.115625	-0.599375
-19.886000	-3.233000	1013.148987	10.657500	-1.137500	-0.393750
-16.348000	2.440000	1004.182007	9.213750	-1.903125	-1.863750
-11.468000	1.464000	1003.389038	14.511875	-2.786875	-4.764375
-4.819000	17.080000	1010.221008	19.276251	-2.270625	-4.571875
-3.965000	44.225002	1032.181030	12.696250	-1.995000	-1.701875
-6.893000	38.186001	1017.846008	3.819375	6.645625	-0.481250
-15.616000	38.003002	1015.772034	-6.475000	6.995625	0.301875
-17.080000	29.707001	1009.611023	-11.178125	8.185625	0.568750
-15.982000	23.118999	1009.916016	-12.057500	11.733750	1.658125
-40.564999	11.590000	1013.697998	-9.520000	13.501250	1.351875
-40.504002	9.943000	1017.846008	-7.398125	6.133750	0.266875
-44.042000	-11.407001	1045.906006	-4.121250	3.298750	-1.115625
-47.824001	17.812000	1017.419006	-0.061250	6.195000	-1.321250
-52.216000	11.285000	1021.445007	0.936250	-2.305625	-1.483125
-50.751999	13.725000	1021.505981	2.065000	-1.172500	-0.988750
-63.989002	22.387001	1016.687012	1.793750	4.086250	0.761250
-60.389999	30.805000	1015.833008	9.104375	21.332500	-3.618125
-89.548004	2.440000	968.130981	9.563750	53.773125	-0.822500
-107.909004	21.655001	978.989014	3.171875	37.979374	2.121875
-136.762009	9.882000	1008.635010	-2.646875	0.052500	-0.542500
-134.444000	18.726999	1020.530029	-2.279375	3.955000	-1.955625
-139.324005	17.507000	1011.014038	0.319375	2.327500	-0.958125
-138.897003	31.842001	985.028015	3.276875	1.754375	-0.035000
-139.201996	32.757000	1001.864014	0.813750	-3.438750	0.175000
-143.106003	25.132000	994.848999	3.867500	2.730000	0.708750
-137.798996	40.382000	1030.900024	1.190000	-6.063750	0.546875
-137.981995	27.632999	1024.677979	1.478750	1.833125	1.268750
-136.152008	35.014000	1003.023010	1.435000	0.135625	0.450625
-131.333008	34.221001	1011.257996	0.774375	1.526875	-0.433125
-139.080002	36.966000	1018.212036	-0.848750	2.454375	0.039375
-131.943008	37.942001	1007.536987	-0.503125	5.455625	1.233750
-140.787994	28.914000	1005.707031	3.193750	9.625000	1.404375
-149.815994	55.083000	987.590027	1.859375	15.036875	1.710625
-159.576004	59.719002	1011.562988	0.568750	12.963125	1.675625
-171.410004	46.055000	1009.794006	-3.381875	6.518750	1.855000
-174.216003	36.478001	997.960022	-1.369375	4.370625	2.231250
-177.815002	34.160000	1000.522034	0.144375	-1.693125	1.058750
-167.567001	37.209999	994.421997	0.621250	-4.134375	-0.778750
-170.007004	42.944000	1007.781006	-1.010625	-9.734375	-1.780625
-152.255997	44.225002	1005.645996	-7.927500	-19.166876	-1.233750
-129.259003	30.988001	1018.517029	-2.734375	-20.829374	-0.393750
-129.076004	22.082001	1012.600037	-2.528750	-7.730625	-0.100625
-124.135002	29.341000	1012.905029	-3.010000	-11.471250	0.332500
-118.461998	19.947001	1003.328003	-2.480625	-8.483125	-0.546875
-96.014000	21.472000	996.984009	-5.398750	-20.260626	-0.297500
-83.326004	17.690001	1015.467041	-7.389375	-23.082500	-1.386875
-59.963001	12.078000	1007.720032	-5.967500	-22.767500	-1.553125
-51.056999	11.407001	1033.523071	-7.315000	-19.306875	-1.277500
-38.917999	10.065001	1015.223022	-3.163125	-21.568750	-0.223125
-8.662000	3.660000	1025.837036	2.428125	-13.566875	-1.378125
-19.947001	28.548000	1033.706055	4.637500	-13.982500	-1.824375
3.660000	14.152000	1018.212036	1.373750	-3.854375	-0.975625
3.233000	12.078000	1008.695984	1.662500	-7.275625	-0.415625
12.871000	10.065001	1007.476013	2.900625	-8.763125	-0.525000
14.152000	21.837999	1030.107056	3.180625	-17.381874	-1.933750
28.853001	6.466000	1047.796997	6.238750	-11.659375	-2.611875
33.062000	25.315001	1016.869995	2.428125	3.885000	-0.940625
31.476000	23.851000	1017.785034	2.734375	2.765000	-0.616875
29.646000	25.010000	1021.567017	3.364375	4.379375	-0.826875
21.716000	34.647999	1021.994019	3.928750	3.622500	0.144375
24.400000	26.779001	1010.526001	3.088750	2.721250	-0.144375
29.036001	37.027000	1023.640991	0.039375	2.830625	-0.560000
27.816000	34.952999	1030.290039	0.481250	3.329375	-1.150625
47.091999	35.685001	1082.018066	-3.368750	0.743750	3.329375
34.952999	34.952999	1044.197998	-13.995625	-6.383125	9.301250
21.716000	33.916000	1009.001038	-11.453750	-5.827500	11.768750
14.335000	10.065001	970.449036	-6.383125	4.550000	10.482500
17.873001	-4.026000	971.669006	-4.878125	0.144375	5.355000
21.228001	-11.590000	978.744995	0.293125	-2.826250	0.665000
18.544001	-5.307000	1004.426025	4.068750	-4.480000	-1.426250
42.395000	0.183000	1006.927002	5.950000	3.460625	0.336875
5.917000	0.610000	1025.471069	2.502500	7.660625	0.805000
-0.976000	19.825001	1009.062012	4.501875	16.515625	-1.216250
-12.932000	26.596001	1020.835022	18.628750	40.888748	-6.776875
-48.068001	19.093000	1023.885010	23.450001	36.150623	-7.424375
-34.038002	64.233002	1028.703979	14.188125	-3.508750	-5.700625
-38.063999	63.989002	1017.663025	1.855000	-2.598750	-4.016250
-37.332001	76.127998	1030.777954	-1.785000	-3.311875	-2.620625
-36.112000	73.321999	1019.859009	-3.088750	0.048125	0.332500
-34.770000	61.243999	1011.989990	1.461250	-1.745625	0.870625
-28.975000	64.111000	1003.816040	4.038125	-2.620625	0.918750
-31.171000	60.633999	1002.230042	5.403125	-4.878125	-0.218750
-23.851000	69.662003	1014.064026	4.606875	-7.096250	-0.643125
-25.071001	73.626999	1008.208008	12.503750	-11.781875	-2.677500
23.118999	82.411003	1030.534058	19.171249	-14.402500	2.874375
5.978000	95.465004	1036.878052	9.467500	-15.824375	5.810000
6.222000	111.691002	1017.053040	-1.347500	-4.781875	2.953125
14.579000	88.694000	1010.221008	-5.853750	-8.290625	0.721875
27.450001	89.853004	1019.614990	-3.762500	0.385000	-0.608125
25.620001	92.292999	1003.450012	-2.983750	1.312500	-0.516250
24.521999	96.136002	1011.257996	-4.930625	3.570000	1.137500
15.189000	81.069000	1011.929016	-6.873125	6.453125	1.461250
8.784000	77.470001	996.007996	-9.891875	7.673750	1.675625
17.873001	67.954002	1001.070984	-14.004375	8.185625	0.485625
18.177999	64.843002	1018.151001	-13.374375	4.335625	-0.319375
2.379000	47.763000	1022.970032	-8.999375	15.417500	-0.358750
-17.690001	44.957001	1027.301025	-9.226875	35.240623	0.980000
-51.240002	25.925001	1015.040039	-8.172500	38.889374	-0.560000
-75.274002	44.347000	1039.806030	-10.189375	28.332500	0.210000
-97.112000	29.707001	1014.734985	-8.242500	27.763750	1.439375
-102.175003	14.701000	1017.174988	-3.893750	-2.384375	0.726250
-100.405998	20.862000	1034.437988	-0.118125	-2.200625	0.315000
-96.319000	18.300001	1010.770020	-0.218750	-2.406250	-0.542500
-90.646004	14.884000	1001.132019	-4.239375	-2.909375	-0.525000
-97.356003	14.030000	1006.377991	-8.382500	-6.650000	-1.198750
-86.375999	-5.673000	1016.687012	-13.645625	-14.218750	-2.318750
-71.370003	-5.307000	1027.789062	-7.371875	-5.206250	-1.697500
-67.892998	-4.148000	1016.015991	3.451875	-2.988125	-1.732500
-64.538002	10.675000	1005.036011	4.795000	-5.639375	-1.395625
-50.935001	15.006001	997.166992	-1.623125	-10.521875	-1.019375
-57.889000	-15.799000	1002.718018	-11.917500	-21.756874	-2.143750
-31.903000	-13.237000	1029.802002	-13.335000	-16.664375	-1.531250
-22.691999	-22.082001	1035.109009	-3.644375	-5.455625	-2.463125
-25.498001	-21.716000	1019.066040	-2.261875	-5.919375	-2.056250
-14.884000	-14.884000	1016.504028	-0.717500	-9.935625	-1.592500
-15.982000	-15.128000	1011.014038	2.305625	-3.653125	0.411250
-5.124000	-23.302000	1027.911011	1.299375	-2.073750	0.140000
-10.248000	-23.180000	1019.066040	2.699375	0.822500	-0.949375
-5.063000	-19.642000	1013.820007	9.209375	2.170000	-1.881250
-2.501000	-3.782000	1011.380005	14.783125	-1.041250	-2.730000
-6.527000	3.111000	1018.028992	21.380625	-0.844375	-3.955000
-6.832000	28.304001	999.973022	19.180000	6.212500	-3.132500
-8.540000	40.443001	1022.359985	7.971250	4.681250	-2.012500
-14.457000	40.564999	1022.908997	2.616250	2.983750	-1.596875
-10.431000	48.129002	1025.837036	-1.015000	3.784375	-0.328125
-20.740000	39.466999	1005.158020	1.133125	1.750000	1.566250
-16.714001	43.675999	1017.906982	1.605625	-1.758750	2.143750
-21.410999	34.038002	1011.380005	7.406875	-8.395625	0.700000
-11.102000	45.567001	1020.652039	3.132500	-12.258750	1.163750
9.638000	49.410000	1045.357056	0.227500	-14.538125	-0.048125
15.372000	49.532001	1013.820007	-1.098125	-5.490625	0.280000
22.264999	53.253002	1009.001038	-4.431875	-10.692500	1.395625
31.720001	38.003002	1011.075012	-1.561875	-6.496875	2.345000
38.125000	46.360001	994.483032	-2.065000	-0.245000	2.270625
31.903000	43.920002	1023.397034	-3.622500	-1.802500	1.522500
30.927000	44.225002	1015.710999	-5.145000	3.250625	1.863750
27.205999	31.293001	1009.184021	-5.713750	1.290625	2.139375
35.624001	42.882999	1012.416992	-6.055000	1.063125	1.308125
35.685001	31.598000	1017.419006	-5.057500	0.275625	0.966875
23.302000	23.607000	1002.413025	-6.037500	2.598750	2.323125
23.302000	22.814001	997.228027	-14.787500	4.510625	4.725000
32.452000	-5.673000	1021.200989	-20.164375	6.396250	3.653125
25.375999	-20.130001	1041.880005	-14.000000	4.891250	0.997500
18.544001	-25.802999	1044.930054	-1.242500	4.125625	-1.198750
16.531000	-11.285000	1029.924072	9.861250	2.292500	-1.627500
18.483000	0.366000	1015.406006	12.285000	-0.205625	-1.640625
22.875000	7.076000	1009.794006	13.286875	-0.415625	-3.272500
23.241001	17.873001	1003.632996	10.224375	-0.315000	-3.294375
21.837999	37.027000	1014.491028	6.518750	0.455000	-1.623125
16.348000	26.962000	1025.837036	5.674375	2.681875	-1.386875
21.350000	26.596001	1025.714966	5.831875	3.613750	-1.146250
4.514000	29.646000	1019.798035	-2.961875	14.901250	0.796250
-11.041000	24.156000	1008.574036	-6.435625	21.573126	0.577500
-27.632999	6.771000	1009.428040	-6.728750	21.424376	-0.188125
-37.576000	21.228001	1002.473999	-6.706875	3.657500	-0.888125
-30.927000	17.934000	1052.311035	-0.546875	-4.956875	-2.030000
-28.365000	21.350000	1024.373047	4.064375	0.446250	-1.159375
-28.792000	33.123001	1013.210022	-2.922500	2.541875	-0.052500
-34.892002	19.886000	1006.134033	-5.468750	2.261875	-0.905625
-34.403999	12.627000	1016.015991	-6.006875	2.275000	0.323750
-26.901001	15.006001	1007.109985	-4.611250	0.157500	-0.013125
-25.071001	2.379000	1016.382019	-4.672500	-3.443125	-1.268750
-19.459000	17.812000	1020.225037	-13.190625	1.561875	0.656250
-34.831001	-14.640000	1023.885010	-3.635625	-1.553125	-1.203125
-30.439001	-14.884000	1017.480042	1.907500	-4.567500	-0.818125
-23.973000	-5.002000	1021.505981	3.163125	0.713125	-0.074375
-24.034000	-2.928000	1010.281982	2.454375	0.310625	0.000000
-23.485001	-3.233000	1021.140015	0.153125	-0.118125	-1.076250
-24.278000	4.758000	1006.012024	-1.614375	2.261875	-0.201250
-27.205999	-3.050000	1020.652039	-2.130625	-0.813750	0.441875
-24.400000	-7.564000	1006.622009	0.350000	1.373750	-0.144375
-24.034000	-2.501000	1020.652039	-0.914375	0.704375	-0.354375
-16.165001	-0.793000	1026.081055	-0.774375	1.658125	-0.030625
-27.755001	-6.344000	1013.210022	-2.970625	3.609375	1.316875
-21.716000	-10.553000	1017.236023	-4.497500	1.981875	0.809375
-30.988001	-17.141001	1009.244995	-5.635000	1.680000	0.612500
-32.390999	-15.738000	1001.192993	-7.245000	-0.393750	1.150625
-30.195000	-36.600002	992.592041	-8.045625	-1.032500	1.789375
-25.071001	-41.602001	1016.626038	-10.342500	-11.401250	1.190000
-13.847000	-34.098999	1009.367004	-14.118125	-7.332500	1.063125
1.281000	-49.715000	1051.822998	-8.933750	-11.515000	-2.100000
-2.928000	-50.081001	1030.534058	-2.830625	-3.526250	-1.750000
3.111000	-35.441002	1014.918030	1.680000	-4.256875	-1.080625
4.880000	-46.421001	1019.066040	4.921875	-0.310625	-1.496250
-3.050000	-41.723999	1022.116028	7.853125	-2.082500	-2.629375
9.699000	-24.095001	1024.129028	9.135000	2.152500	-2.086875
2.318000	-28.365000	1001.559021	14.997500	5.433750	-2.156875
6.344000	-28.182001	1019.249023	17.850000	4.449375	-2.056250
-1.098000	1.952000	1031.692993	10.946250	6.374375	0.118125
-20.801001	-4.819000	1011.684998	11.191250	10.451875	-2.047500
-18.483000	16.409000	1000.033997	7.748125	1.710625	-1.365000
-19.825001	19.703001	1032.669067	4.869375	0.923125	-0.616875
-15.738000	22.326000	1022.177002	1.981875	2.944375	0.074375
-36.966000	24.888000	1033.828003	0.135625	7.048125	-1.089375
-29.402000	17.690001	1012.843994	-0.406875	1.435000	-0.310625
-27.938000	17.202000	1019.554016	-1.006250	1.290625	-0.284375
-25.986000	21.228001	1012.721985	-0.616875	0.704375	-0.140000
-27.572001	17.446001	1012.112000	-0.953750	0.713125	0.262500
-27.877001	16.348000	1014.186035	1.019375	2.288125	-0.665000
-31.659000	22.143000	1004.669983	-1.789375	6.536250	-0.590625
-35.563000	32.879002	1038.402954	-0.691250	27.050625	0.428750
-61.061001	15.921000	1010.281982	2.191875	36.933750	0.188125
-81.984001	17.446001	1014.307983	-2.358125	3.093125	0.284375
-74.847000	10.309000	1016.869995	1.198750	2.384375	-0.923125
-80.764000	23.118999	1006.622009	-0.612500	-2.786875	-0.984375
-74.542000	27.632999	1029.313965	-2.489375	-5.796875	-0.218750
-75.639999	20.374001	1013.148987	-2.428125	2.743125	0.043750
-74.542000	19.947001	1014.429993	-3.185000	-1.719375	-0.647500
-65.696999	3.721000	1009.428040	-4.948125	-3.360000	-0.678125
-64.050003	13.420000	1008.147034	-1.955625	0.013125	-0.284375
-67.709999	-0.671000	1007.963989	-4.370625	2.467500	0.866250
-71.431000	0.244000	1005.645996	-5.866875	3.644375	1.583750
-71.248001	1.098000	1018.395020	-7.581875	6.195000	1.618750
-82.532997	-3.172000	1014.429993	-3.959375	10.075625	1.675625
-71.736000	-13.908000	1014.734985	-0.914375	11.081875	0.691250
-93.330002	-9.455000	1013.393005	3.736250	4.633125	0.735000
-93.330002	-2.684000	1018.944031	3.876250	-1.347500	-0.529375
-103.273003	-3.904000	1017.968018	-0.765625	3.128125	0.306250
-97.783005	-5.063000	1022.665039	-0.205625	1.001875	0.000000
-87.656998	-0.854000	1012.173035	-2.353750	-0.787500	0.332500
-97.844002	-8.845000	1015.650024	-0.866250	-5.849375	-0.870625
-96.746002	-12.078000	1024.739014	-1.758750	-16.887501	-4.046875
-84.485001	-13.603000	1031.448975	-7.691250	-22.820000	-5.346250
-56.608002	-5.124000	1036.145996	-6.444375	-7.713125	-5.009375
-56.119999	-20.434999	1000.643982	-3.889375	3.342500	-2.651250
-64.721001	-12.810000	1001.010010	2.253125	-0.888125	1.715000
-50.447002	-21.106001	1013.942017	7.341250	-1.863750	4.453750
-55.265999	-16.348000	1013.088013	3.928750	-1.820000	1.513750
-53.131001	-7.991000	997.716003	-2.620625	-7.608125	-1.264375
-33.000999	3.477000	1010.770020	-2.747500	-17.762501	-3.749375
-28.548000	-1.525000	1014.186035	-0.210000	-16.349375	-4.178125
-18.788000	11.590000	1028.459961	-2.865625	-6.846875	-4.558750
-29.097000	-6.710000	1018.639038	-0.017500	2.817500	-2.576875
-22.753000	-15.738000	1028.765015	4.458125	0.288750	-0.035000
-13.298000	-38.552002	1037.305054	5.057500	3.338125	5.416250
-25.193001	-39.406002	1013.759033	4.156250	2.975000	4.025000
-15.128000	-27.999001	1019.676025	-1.115625	4.243750	0.437500
-14.823000	-16.042999	1024.373047	-5.066250	1.968750	-3.526250
-24.034000	-10.492001	1018.760986	-4.501875	0.892500	-5.814375
-24.827000	6.649000	1009.916016	-0.560000	1.890000	-2.371250
-12.505000	7.808000	1002.840027	3.093125	1.531250	1.172500
-21.716000	2.196000	1002.901001	1.452500	2.012500	3.049375
-18.666000	6.161000	994.788025	-1.316875	1.806875	2.716875
-9.516000	-23.668001	1007.293030	-1.185625	-5.468750	0.406875
-10.126000	-27.205999	1043.039062	-2.502500	-9.353750	-1.505000
-47.396999	8.662000	981.367981	1.715000	-13.431250	-4.309375
4.819000	-21.350000	1012.356018	10.605000	-8.071875	-5.188750
6.954000	8.479000	1044.015015	7.415625	0.271250	-1.373750
-15.799000	20.434999	1052.005981	2.738750	20.273750	4.746875
-31.049000	8.052000	1029.740967	7.966875	33.586876	7.625625
-47.824001	4.758000	1004.791992	2.139375	26.468750	6.588750
-49.105000	20.252001	1027.239990	-2.458750	10.285625	4.585000
-59.841000	23.363001	1026.385986	-1.246875	14.227500	-0.590625
-63.440002	32.818001	1003.694031	-0.813750	17.718750	-1.106875
-83.875000	33.062000	999.424011	0.446250	8.955625	-0.350000
-80.703003	21.960001	1015.955017	1.588125	6.138125	1.736875
-88.633003	20.252001	1012.539001	-1.824375	2.393125	1.933750
-93.695999	15.738000	1024.006958	-3.775625	1.588125	0.783125
-107.848000	-5.490000	1010.403992	-3.185000	0.634375	-0.087500
-103.211998	2.623000	1020.713013	-1.155000	-0.726250	-1.111250
-104.798004	4.880000	1017.480042	-0.770000	-0.529375	-1.023750
-91.622002	7.137000	1011.624023	-1.596875	-1.754375	1.023750
-92.659004	-0.488000	1017.663025	-0.476875	0.026250	1.736875
-92.842003	2.989000	1010.708984	-2.931250	-0.262500	0.721875
-98.087997	1.403000	1014.247009	-5.735625	-1.001875	-0.385000
-93.635002	-2.562000	1020.835022	-1.400000	-2.730000	-1.898750
-101.320999	21.289000	998.265015	-1.618750	5.569375	-2.113125
-108.092003	27.938000	1011.989990	-4.160625	-0.140000	-3.500000
-110.105003	22.753000	1038.281006	1.736875	5.486250	0.240625
-102.968002	5.795000	1024.250977	6.037500	8.785000	7.319375
-104.005005	-5.124000	980.575012	15.841875	5.989375	9.633750
-112.849998	17.385000	982.283020	13.405000	1.089375	4.873750
-108.640999	26.840000	1012.905029	0.231875	-1.067500	-0.258125
-123.769005	23.180000	1001.803040	-7.148750	4.576250	-5.346250
-106.872002	23.790001	965.691040	-1.509375	0.441875	-5.105625
-99.857002	8.784000	974.231018	0.923125	-1.627500	-0.236250
-103.700005	2.684000	991.921021	8.137500	-6.790000	0.166250
-98.271004	6.161000	1032.485962	8.750000	-10.434375	-2.091250
-93.940002	27.694000	1057.495972	-4.895625	-4.243750	-2.835000
-74.847000	26.718000	1060.546021	-13.483750	0.498750	-2.358125
-92.049004	36.173000	1039.196045	-9.205000	3.928750	-1.395625
-94.855003	26.779001	1028.582031	-0.061250	2.891875	0.350000
-93.269005	18.605000	993.324036	5.026875	4.768750	2.891875
-90.036003	11.834001	1007.171021	-0.284375	1.658125	2.874375
-102.906998	13.969000	982.648987	-1.771875	3.972500	0.971250
-94.916000	14.091001	1016.320984	3.145625	-1.535625	-0.013125
-95.403999	17.323999	1017.419006	3.924375	-0.223125	1.089375
-102.480003	22.691999	1024.556030	-0.791875	0.468125	0.529375
-108.702003	18.056000	1024.373047	-6.868750	1.763125	-1.544375
-104.309998	4.026000	1007.720032	-8.662500	1.548750	-1.658125
-95.098999	-11.041000	1001.376038	-2.983750	2.765000	0.809375
-88.511002	-1.830000	1008.025024	-0.048125	1.299375	1.505000
-100.223000	-2.379000	1017.785034	-0.205625	-2.572500	1.583750
-93.452003	5.917000	1017.968018	-1.999375	0.118125	0.328125
-97.112000	19.947001	1013.027039	-5.792500	-0.319375	-4.970000
-94.306000	5.368000	1011.014038	-13.195000	-0.043750	-6.895000
-103.211998	-19.459000	984.967041	-9.651250	-0.236250	-4.086250
-105.896004	-28.792000	1007.293030	1.238125	-3.968125	0.809375
-98.332001	-13.786000	1032.058960	7.498750	-4.886875	2.415000
-94.916000	0.549000	1008.817993	9.135000	-1.640625	0.476875
-105.834999	14.884000	1024.800049	4.672500	-3.906875	-2.874375
-100.284004	13.786000	1026.324951	7.065625	-1.907500	-1.251250
-80.703003	19.703001	1024.739014	0.796250	0.529375	1.710625
-91.622002	16.409000	1011.867981	-1.155000	1.456875	1.124375
-90.889999	1.037000	1030.473022	-0.144375	1.701875	-3.101875
-99.795998	-27.023001	1004.121033	-15.365000	1.483125	-9.380000
-82.837997	-69.845001	1009.733032	-10.408125	1.356250	-8.373750
-62.464001	-44.225002	964.288025	6.746250	3.080000	6.378750
-63.867001	3.111000	966.362000	10.740625	-5.368125	12.862500
-52.338001	39.894001	1054.506958	7.481250	-12.814375	1.570625
-83.997002	53.436001	1050.724976	3.491250	-2.935625	-5.985000
-103.273003	41.968002	1057.251953	-6.155625	-0.026250	-6.146875
-67.222000	12.749001	1038.342041	-13.606250	5.901875	-0.223125
-68.076004	-19.215000	1016.687012	-9.970625	8.618750	0.761250
-84.667999	-34.952999	993.263000	1.614375	2.743125	0.385000
-79.422005	-33.672001	1034.193970	2.384375	-0.253750	1.308125
-92.170998	-28.487000	996.679016	0.026250	5.276250	0.468125
-66.184998	-3.965000	1021.018005	-6.090000	-0.953750	-2.226875
-79.117004	-8.174000	1029.070068	-7.599375	0.953750	0.428750
-72.834000	-8.296000	1018.944031	4.707500	-0.227500	2.003750
-83.326004	3.355000	1000.338989	2.156875	7.686875	4.550000
-109.495003	2.623000	989.603027	-4.611250	2.480625	5.971875
-100.405998	-41.114002	1008.940002	-7.931875	5.639375	3.885000
-90.584999	-40.869999	1005.402039	-14.586250	3.924375	3.513125
-88.694000	-46.786999	1050.053955	-23.379999	-4.799375	6.523125
-85.827003	-67.161003	1009.549988	-18.891251	-3.513125	3.666250
-76.860001	-57.401001	980.270020	-13.868750	-6.142500	1.920625
-85.095001	-74.542000	1014.856995	-10.250625	-5.363750	1.513750
-91.561005	-95.281998	1015.040039	-1.478750	-0.341250	0.962500
-94.916000	-90.524002	999.302002	5.083750	-2.279375	0.678125
-93.085999	-84.790001	981.124023	12.066250	-3.556875	-1.430625
-72.528999	-71.308998	1031.937012	9.358125	-8.233750	-5.989375
-53.313999	-64.538002	1067.622070	-5.254375	-9.690625	-8.885625
-49.897999	-65.391998	1081.591064	-14.446250	-6.816250	-10.355625
-71.613998	-83.997002	992.958008	-8.741250	16.515625	-2.922500
-51.179001	-108.458000	956.601990	2.782500	4.725000	-0.428750
-52.094002	-81.313004	943.548035	5.333125	-2.651250	0.175000
-59.535999	-84.973000	979.903992	7.533750	-9.257500	-2.270625
-62.586002	-81.313004	1029.802002	2.174375	-8.421875	-4.427500
-45.323002	-55.875999	1048.223999	-1.456875	-4.252500	-4.598125
-51.728001	-45.567001	1040.964966	-0.818125	0.888125	-2.563750
-64.903999	-52.764999	1003.510986	3.823750	5.600000	-1.868125
-59.414001	-46.237999	1041.026001	7.805000	1.391250	-1.719375
-52.154999	-72.773003	1043.770996	11.532500	5.236875	-0.341250
-66.612000	-61.671001	999.729004	9.003750	11.567500	0.931875
-75.639999	-77.409004	970.632019	9.961875	12.630625	-2.130625
-37.271000	-31.293001	1029.740967	7.879375	-11.567500	-3.666250
-64.598999	-7.259000	1029.375000	10.666250	-3.325000	-5.201875
-58.316002	19.215000	1028.155029	12.670000	-6.055000	-4.978750
-64.598999	-1.098000	1006.500000	12.788125	3.539375	-4.011875
-53.497002	-15.006001	997.593994	13.960625	15.846250	0.043750
-67.099998	44.652000	952.575989	8.973125	19.040001	4.335625
-80.093002	0.793000	1028.947998	8.776250	1.771875	-1.356250
-91.561005	18.056000	1045.967041	10.469375	0.262500	-4.528125
-75.212997	-10.919000	1008.940002	21.507500	26.879999	-0.778750
-120.109001	23.607000	991.554993	23.948750	6.243125	-2.940000
-81.191002	59.963001	1075.796021	0.599375	-42.936249	-1.977500
-47.458000	38.735001	1034.682007	-16.253124	-36.911877	-0.822500
-50.447002	29.707001	1042.124023	-9.511250	-4.011875	6.676250
-54.595001	40.504002	1017.114014	4.480000	11.296250	6.247500
-37.576000	55.327000	992.835999	8.063125	5.320000	4.165000
-37.332001	86.132004	1031.265991	3.990000	4.480000	2.388750
-51.728001	49.959000	975.634033	-3.368750	5.656875	0.319375
-79.178001	29.036001	1012.234009	-7.293125	-1.273125	-2.419375
-57.889000	77.653000	1051.395996	-3.570000	-0.485625	-6.164375
-80.093002	57.096001	1054.506958	3.801875	4.961250	-5.796875
-67.954002	55.510002	1038.952026	-5.368125	9.528750	-3.635625
-92.720001	18.483000	1018.944031	-7.223125	13.453125	-5.678750
-76.250000	34.770000	1030.961060	-9.108750	-0.568750	-7.100625
-55.144001	23.424000	1013.270996	-9.725625	8.465625	-3.994375
-75.029999	16.653000	1009.916016	-1.001875	19.289375	3.605000
-103.516998	37.149002	982.039001	0.774375	21.481251	7.573125
-115.534004	28.365000	982.893005	4.051250	-0.901250	10.084375
-58.072002	14.579000	996.679016	-1.763125	-38.762501	9.782500
-56.791000	63.013000	1012.783020	0.385000	-39.812500	8.596875
-37.453999	1.220000	1003.205994	2.839375	-20.098749	6.391875
-44.042000	17.202000	1008.574036	-0.704375	-6.829375	1.828750
-32.635002	27.267000	1005.707031	-1.780625	-3.622500	-0.568750
-25.742001	43.431999	1015.161987	1.916250	2.550625	-0.231875
-23.241001	51.667000	1028.765015	4.523750	0.490000	3.395000
-32.635002	31.842001	1015.710999	1.723750	3.132500	4.685625
-22.997000	26.474001	1017.480042	1.452500	2.708125	3.176250
-22.753000	35.257999	1025.166016	0.813750	7.971250	1.570625
-32.695999	45.445000	1020.346985	0.214375	8.028125	0.192500
-41.663002	40.260002	1009.916016	-0.708750	6.400625	0.953750
-41.907001	35.990002	1015.833008	-0.770000	3.867500	-0.437500
-43.310001	36.355999	1017.114014	-3.950625	3.985625	-0.735000
-46.604000	30.683001	1020.103027	-5.954375	0.048125	-1.890000
-47.580002	23.363001	1015.161987	-7.157500	2.865625	-1.588125
-50.874001	19.398001	1032.302979	-8.058750	4.869375	-2.148125
-67.161003	7.076000	1022.481995	-6.216875	12.713750	-4.427500
-73.200005	7.015000	1005.036011	-5.188750	13.588750	-5.149375
-77.897003	14.152000	1018.944031	-7.358750	17.066875	-5.433750
-96.624001	6.832000	1000.338989	-8.242500	10.578750	-3.740625
-84.240997	-8.113000	978.806030	-0.450625	1.929375	-3.823750
-81.374001	21.228001	1017.906982	1.811250	-2.108750	-1.614375
-86.742004	13.237000	1015.893982	3.775625	-0.485625	1.531250
-88.328003	9.943000	1005.523987	4.913125	0.993125	3.556875
-87.901001	13.969000	1015.161987	4.926250	1.938125	2.848125
-95.403999	8.479000	1007.781006	5.608750	4.926250	1.264375
-94.672005	17.263000	1026.081055	6.794375	-5.171250	-3.613750
-91.377998	28.243000	1017.114014	5.083750	1.124375	-1.890000
-90.889999	37.332001	999.546021	1.181250	14.708750	1.946875
-103.821999	20.496000	1010.830994	-0.170625	5.932500	1.925000
-108.335999	23.546000	1022.786987	-1.758750	5.971875	0.245000
-114.192001	16.775000	1011.929016	-3.202500	4.108125	-0.433125
-116.753998	25.498001	998.875000	-0.538125	3.990000	0.048125
-109.861000	30.134001	1006.988037	-2.603125	1.417500	2.178750
-105.591003	27.328001	1029.070068	0.879375	0.525000	1.767500
-115.655998	38.368999	999.179993	4.186875	1.483125	3.473750
-113.887001	36.600002	1031.388062	8.211875	-5.267500	2.856875
-109.190002	42.456001	1010.098999	2.541875	-3.438750	1.242500
-109.433998	34.038002	1012.234009	-4.698750	-0.319375	-0.625625
-114.802002	29.158001	1002.351990	-6.081250	2.690625	-2.143750
-111.751999	31.232000	1002.413025	-7.778750	3.526250	-3.285625
-113.826004	12.322001	1010.098999	-7.231875	1.557500	-2.095625
-111.751999	12.200000	1000.888000	-4.707500	-2.314375	-0.958125
-115.717003	0.793000	1012.966003	-5.118750	0.656250	0.888125
-113.216003	-11.651000	1026.812988	-2.935625	0.013125	-0.980000
-114.314003	10.614000	998.447998	1.203125	1.531250	-3.771250
-119.194000	32.635002	995.215027	-3.740625	0.910000	-1.382500
-107.665001	19.153999	1019.127014	-7.533750	-1.789375	0.328125
-111.751999	-1.403000	1026.995972	-8.063125	-1.159375	-0.507500
-107.542999	-7.991000	1020.652039	-10.351250	2.148125	0.765625
-111.751999	-22.204000	1017.968018	-13.278125	-1.968750	0.328125
-110.227005	-25.437000	1003.328003	-13.720000	0.678125	1.089375
-103.028999	-43.859001	1017.723999	-12.783750	-5.070625	-0.131250
-96.929001	-52.826000	983.502991	-6.378750	-13.396250	-2.187500
-81.739998	-43.005001	985.515991	-2.248750	-26.586876	-2.034375
-50.264000	-57.767002	1016.504028	1.890000	-42.253750	-1.575000
-29.889999	-44.834999	1033.035034	0.542500	-20.912500	-1.850625
-15.128000	-37.637001	1017.846008	-2.786875	-14.476875	-2.060625
-6.466000	-44.469002	1029.436035	-3.806250	-10.653125	-1.321250
4.453000	-39.955002	1020.164001	-6.326250	-2.988125	-0.415625
-1.220000	-66.856003	1017.053040	-3.255000	-1.478750	-0.280000
1.281000	-55.205002	1011.075012	-0.428750	-3.631250	-1.868125
14.579000	-50.874001	1020.041992	6.685000	-7.883750	-2.397500
14.030000	-42.334000	1007.109985	12.871250	-11.637500	-1.465625
-6.222000	-56.303001	984.174011	9.178750	-20.400625	-4.029375
45.811001	-38.735001	1021.445007	0.743750	-30.275000	-1.802500
72.163002	-46.299000	1019.187988	2.454375	-26.670000	-4.528125
101.382004	-11.346000	997.533020	1.286250	-26.866875	-3.850000
113.947998	-28.121000	1006.195007	5.411875	-25.628750	-3.495625
136.639999	-33.000999	1020.773987	1.859375	-26.411875	-2.738750
154.451996	-14.335000	997.777039	4.160625	-12.328750	-3.408125
158.050995	-10.248000	1006.377991	4.501875	-12.621875	-1.570625
173.179001	-16.469999	1009.428040	3.167500	-5.735625	0.437500
169.701996	-12.444000	1014.552002	3.526250	-4.725000	-0.831250
175.497009	-6.771000	1010.221008	2.323125	-4.908750	-1.846250
187.636002	-6.222000	1009.671997	-0.183750	-1.369375	-0.201250
175.192001	-14.518001	990.152039	1.408750	1.946875	-0.144375
177.693008	-8.845000	995.458984	0.210000	1.767500	0.000000
173.850006	-9.455000	992.835999	0.752500	4.860625	0.603750
172.569000	-10.614000	1005.585022	0.201250	3.241875	0.870625
171.410004	-16.348000	996.984009	0.021875	2.178750	0.643125
171.410004	-11.834001	1001.254028	0.586250	-0.415625	0.494375
166.042007	-13.908000	1001.010010	0.818125	-1.767500	0.153125
175.375000	-10.919000	996.679016	0.056875	0.350000	0.761250
172.507996	-3.843000	998.265015	2.008125	-1.579375	0.170625
174.337997	-11.956000	1002.656982	2.126250	1.653750	1.203125
170.556000	-6.344000	1004.791992	3.276875	0.048125	0.196875
172.934998	3.111000	1008.574036	-0.284375	-0.144375	0.350000
182.512009	4.575000	1018.333984	-1.596875	4.265625	0.940625
166.835007	-5.795000	1002.535034	-0.354375	4.921875	0.271250
165.309998	-6.832000	991.250000	-0.713125	4.707500	0.538125
166.835007	-5.002000	994.056030	-0.240625	2.865625	0.315000
164.151001	-5.246000	993.812012	0.056875	1.430625	1.198750
170.434006	-6.100000	1007.658997	0.940625	-0.888125	1.194375
156.831009	-6.161000	1001.681030	1.408750	-0.087500	0.840000
160.552002	2.074000	1000.156006	-0.227500	-0.161875	0.039375
167.505997	-5.002000	1005.158020	-1.373750	0.883750	-0.472500
167.384003	6.344000	998.692017	-1.028125	1.881250	0.507500
164.578003	-8.235000	999.424011	-0.310625	2.191875	0.638750
161.223007	-4.087000	1006.317017	-1.176875	1.701875	-0.153125
170.190002	-9.394000	1017.968018	-0.686875	1.439375	-0.048125
167.384003	-3.782000	1018.700012	1.456875	0.962500	-0.428750
153.048996	5.185000	987.955994	1.093750	4.344375	0.323750
161.406006	-0.976000	1000.522034	0.345625	1.588125	0.105000
156.526001	-1.708000	989.664001	0.936250	3.823750	0.096250
160.917999	2.074000	992.348022	-2.248750	2.576875	2.209375
144.570007	-18.971001	994.971008	-2.983750	3.473750	0.651875
143.777008	-11.468000	1022.604004	-4.051250	-2.502500	-0.669375
153.781006	-3.843000	1016.504028	1.544375	3.023125	-1.903125
150.182007	-0.366000	998.692017	0.612500	2.450000	0.866250
143.837997	-6.832000	992.470032	-0.953750	1.863750	2.047500
150.975006	-15.677000	1011.807007	-3.290000	0.245000	0.262500
147.803009	-12.078000	992.835999	-4.847500	4.865000	-0.529375
152.805008	-12.871000	1011.746033	-4.913125	2.751875	0.258125
146.826996	-17.568001	1010.343018	-0.879375	1.719375	-0.140000
138.348007	-13.054000	1014.429993	0.280000	2.279375	-0.345625
136.395996	-10.370000	1005.523987	2.073750	7.385000	-0.861875
138.714005	-8.296000	1001.497986	2.515625	5.075000	0.008750
132.979996	-13.786000	995.031982	0.070000	4.528125	1.378125
131.882004	-17.629000	1008.330017	-0.083125	5.792500	0.463750
122.061005	-12.505000	1009.976990	-0.756875	9.756250	-0.630000
119.559998	-9.028000	1011.502014	-2.327500	9.485000	0.161875
109.678001	-17.080000	1011.989990	-1.159375	10.994375	0.258125
100.528000	-14.396000	1000.888000	-0.529375	11.466875	1.076250
83.204002	-13.664001	1023.640991	5.066250	24.635626	-2.314375
74.664001	-12.688000	1012.112000	2.213750	18.921875	-1.763125
58.316002	-9.577000	1036.634033	-1.627500	12.840625	0.297500
48.250999	-18.544001	1007.781006	0.638750	13.173125	-1.623125
41.480000	-3.477000	1003.694031	0.927500	5.289375	-1.671250
44.042000	2.440000	1018.822021	1.588125	5.145000	-0.892500
40.382000	4.575000	1018.333984	3.565625	11.825625	-0.315000
27.145000	-8.235000	1019.249023	2.699375	20.536249	1.281875
-1.586000	5.063000	1002.962036	3.955000	20.299999	0.621250
-11.773000	-3.782000	1020.957031	2.905000	17.626875	-0.494375
-14.030000	10.126000	1025.776001	1.216250	23.432501	-0.686875
-31.049000	7.564000	1010.403992	-1.938125	15.715000	0.223125
-36.417000	12.261000	1011.929016	-3.587500	8.312500	1.032500
-45.932999	-2.928000	1025.531982	-3.136875	9.301250	0.105000
-53.558002	6.588000	1017.906982	-0.463750	10.815000	0.590625
-61.792999	6.832000	1025.531982	-0.253750	10.828125	1.518125
-75.152000	1.098000	1022.481995	2.616250	14.778750	2.445625
-83.570000	-0.915000	1014.796021	1.085000	14.043750	2.655625
-91.500000	-1.708000	1018.333984	-0.424375	18.834375	1.500625
-105.896004	5.734000	1007.658997	2.463125	24.368750	3.609375
-129.869003	16.226000	992.226013	1.631875	24.386250	5.193125
-144.203995	21.045000	1006.682983	-0.350000	11.401250	3.303125
-153.354004	7.198000	1011.380005	-0.866250	8.960000	1.548750
-154.085999	14.640000	1008.574036	-0.831250	11.571875	0.805000
-160.917999	10.492001	1002.596008	-0.721875	8.579375	1.400000
-163.419006	3.660000	998.387024	-1.946875	5.796875	1.045625
-166.529999	-5.368000	1005.523987	-3.600625	6.829375	-1.719375
-175.313995	0.366000	1004.426025	-1.229375	6.068125	-1.596875
-179.949997	3.538000	1003.694031	1.015000	10.727500	-0.231875
-184.951996	10.309000	998.265015	1.929375	6.925625	0.371875
-204.044998	6.832000	1005.218994	-1.933750	11.191250	0.188125
-198.555008	3.843000	996.496033	-2.966250	10.128125	-1.465625
-212.889999	-3.660000	995.153992	0.275625	7.896875	-1.260000
-204.350006	12.810000	993.202026	-2.025625	3.386250	-1.229375
-210.572006	-1.098000	989.114990	-1.631875	-2.826250	-0.017500
-206.240997	-3.294000	999.119019	-0.918750	-5.136250	-0.586250
-207.278000	4.819000	1001.619995	-0.765625	-5.066250	-0.328125
-203.617996	5.002000	1004.426025	-0.568750	-0.087500	-0.091875
-201.666000	6.954000	990.395996	-1.649375	3.578750	0.070000
-208.498001	-1.708000	1002.901001	-0.035000	1.968750	-0.840000
-204.472000	10.675000	997.106018	2.012500	3.185000	-0.958125
-209.839996	6.222000	1005.158020	-0.420000	-2.598750	-1.159375
-207.826996	0.122000	1006.255981	-1.216250	-4.173750	-1.951250
-202.520004	-4.026000	990.152039	-1.470000	-4.348750	-2.336250
-188.550995	-7.198000	1006.500000	-0.367500	-4.344375	-0.651875
-188.794998	1.281000	990.457031	1.771875	2.979375	0.109375
-199.591995	-0.976000	1000.705017	-3.303125	0.621250	-2.003750
-196.785995	2.135000	1000.156006	-2.865625	3.504375	-2.813125
-199.104004	-2.806000	1000.400024	-1.093750	4.011875	-0.936250
-200.994995	4.331000	992.958008	-1.063125	2.642500	0.472500
-203.251999	-1.220000	988.687988	-1.505000	3.084375	0.783125
-205.203995	-5.612000	983.320007	-2.056250	3.587500	0.043750
-210.876999	-6.710000	1003.999023	-4.200000	1.133125	-0.420000
-208.925003	-8.235000	999.302002	-5.158125	2.384375	-0.516250
-215.208008	-19.764000	1003.632996	-3.806250	-2.051875	-0.647500
-204.533005	-15.189000	1000.888000	-4.261250	-4.130000	-0.879375
-199.531006	-18.117001	994.666016	-4.077500	-3.517500	-1.194375
-201.483002	-31.659000	999.179993	-5.446875	-6.763750	-2.060625
-191.600998	-40.382000	999.911987	-4.698750	-7.555625	-1.964375
-186.050003	-31.842001	999.546021	-4.725000	-2.401875	-0.293125
-185.928009	-37.332001	991.005981	-5.118750	-1.474375	0.398125
-180.316010	-40.443001	995.885986	-5.578125	-4.493125	-1.102500
-180.255005	-41.663002	1001.497986	-5.875625	-3.710000	-2.279375
-172.324997	-35.990002	1005.950989	-3.403750	-3.259375	-2.410625
-172.934998	-34.770000	1005.707031	-0.035000	-4.659375	-0.153125
-163.723999	-39.161999	997.289001	-1.505000	-6.667500	0.091875
-157.136002	-56.608002	997.289001	-5.228125	-17.648750	-3.176250
-141.093002	-56.608002	1004.059998	-6.540625	-16.296875	-5.175625
-129.442001	-72.956001	1015.772034	-7.923125	-13.059375	-5.591250
-119.987000	-67.954002	1013.454041	-8.194375	-10.876250	-4.375000
-117.973999	-80.520004	1015.955017	-9.480625	-7.791875	-2.611875
-109.495003	-94.062004	1012.843994	-15.465625	-2.060625	-3.390625
-106.445000	-93.390999	1005.096985	-12.630625	1.456875	-3.876250
-107.116005	-105.957001	1004.548035	-8.093750	0.844375	-1.898750
-106.811005	-107.970001	994.178040	-9.148125	-3.784375	-2.121875
-107.116005	-112.484001	1012.112000	-7.520625	-5.000625	-1.273125
-95.465004	-115.107002	999.363037	-5.293750	-2.983750	-2.170000
-85.339005	-127.794998	1003.572021	-8.395625	-6.260625	-2.305625
-86.925003	-139.141006	1011.624023	-6.444375	-12.757500	-2.095625
-81.618004	-137.188995	1007.109985	-5.534375	-3.456250	-2.135000
-87.047005	-132.248001	1007.598022	-1.855000	-4.261250	-2.546250
-76.737999	-138.104004	994.788025	1.592500	-2.349375	-0.586250
-75.334999	-140.666000	1008.940002	-1.675625	-5.306875	0.651875
-73.504997	-144.996994	994.544006	-3.198125	-4.361875	0.848750
-63.562000	-144.264999	1012.051025	-3.460625	-4.165000	0.428750
-68.930000	-144.264999	1018.333984	-1.019375	-2.401875	-1.010625
-33.672001	-148.291000	1028.520996	-0.861875	-0.472500	0.188125
-48.983002	-138.470001	1000.095032	-2.870000	-1.925000	0.831250
-52.582001	-153.598007	1009.306030	-2.353750	-3.202500	0.013125
-52.338001	-149.449997	1002.840027	-2.594375	-0.953750	-0.358750
-53.802002	-147.009995	1005.523987	-2.371250	-4.003125	-0.927500
-32.879002	-145.423996	994.848999	-5.648125	-6.553750	0.135625
-48.678001	-149.511002	1011.989990	-2.638125	5.534375	0.949375
-54.167999	-162.748001	996.557007	-3.180625	-1.115625	-0.853125
-55.021999	-161.893997	1010.648010	-1.369375	-0.573125	-1.461250
-43.675999	-156.343002	1006.255981	-2.690625	0.971250	-0.866250
-65.086998	-172.874008	976.976013	-4.313750	-1.382500	-1.478750
-44.225002	-164.699997	985.210999	-8.238125	-9.686250	-2.813125
-26.291000	-171.531998	1034.987061	-8.907500	-3.355625	-0.726250
-33.489002	-188.307007	1005.341003	-4.291875	3.500000	-0.936250
-37.514999	-174.277008	999.179993	-0.936250	0.455000	-0.761250
-36.600002	-183.731995	992.653015	0.052500	0.100625	-0.577500
-30.316999	-169.275009	996.739990	0.511875	0.341250	-0.476875
-42.334000	-173.972000	984.906006	3.189375	0.783125	-1.093750
-41.297001	-170.861008	990.457031	7.866250	-2.485000	-2.296875
-31.476000	-169.214005	1014.429993	11.427500	-6.133750	-2.572500
-23.485001	-152.072998	1017.541016	13.645625	-5.280625	-2.021250
-24.827000	-145.240997	1009.671997	13.943125	-3.797500	-1.211875
-22.691999	-141.703003	1012.051025	14.297500	-4.602500	-1.085000
-7.747000	-124.440002	1006.927002	12.066250	-3.285625	-0.105000
3.233000	-104.249001	1013.210022	9.331875	0.179375	1.325625
-4.026000	-111.020004	1011.867981	14.494375	-2.598750	0.258125
-17.934000	-108.763000	1003.450012	15.898750	-2.922500	-1.019375
-5.185000	-80.764000	999.179993	21.594999	-2.795625	-1.080625
1.769000	-63.074001	1024.067993	25.094999	-2.183125	0.336875
9.760000	-38.857002	1027.484009	14.205625	4.541250	2.073750
-11.407001	-34.465000	1026.020020	9.498125	9.537500	2.795625
-27.328001	-36.722000	1014.429993	7.371875	15.684375	0.665000
-30.805000	-19.215000	1011.197021	13.129375	4.125625	-0.560000
-28.548000	-10.187000	1031.265991	19.057501	-1.911875	0.713125
-13.725000	8.357000	1020.713013	19.298124	-2.240000	2.835000
-7.869000	21.228001	1017.663025	12.871250	-4.777500	4.436250
-14.762000	25.620001	1018.028992	12.254375	-8.496250	2.808750
-4.758000	36.722000	1023.945984	15.360625	-0.393750	-0.122500
-3.172000	49.348999	1009.306030	9.375625	4.278750	-0.406875
-10.309000	61.183002	1003.877014	4.913125	0.796250	-0.511875
-12.444000	62.646999	1004.853027	2.751875	-0.065625	-0.503125
-5.795000	54.778000	1006.012024	1.395625	1.032500	-0.306250
-8.296000	61.487999	1018.455994	2.690625	0.306250	0.406875
-16.409000	62.708000	1019.187988	5.700625	-1.544375	0.450625
-6.100000	74.176003	1014.186035	7.376250	-2.248750	0.328125
-10.736000	78.628998	1020.530029	8.058750	0.433125	0.638750
-15.555000	82.654999	1003.755005	5.928125	-0.608125	0.774375
-7.381000	89.853004	1015.955017	11.611250	-1.330000	-0.651875
-10.004000	98.027000	1005.890015	7.783125	1.680000	-0.350000
8.601000	102.663002	1012.416992	5.254375	-2.117500	-0.070000
-6.100000	89.914001	1014.491028	5.193125	1.233750	-1.041250
-2.257000	114.924004	1001.070984	3.727500	1.566250	-1.001875
3.965000	105.529999	1008.025024	-1.592500	-0.306250	-0.415625
-5.734000	106.201004	1010.160034	-5.372500	2.100000	-0.599375
-12.322001	99.612999	1019.005005	-6.658750	0.743750	-0.428750
-16.592001	95.891998	1025.166016	-0.376250	1.194375	-0.538125
-7.686000	111.446999	1016.442993	5.005000	0.949375	0.035000
-12.078000	108.397003	1011.135986	4.633125	0.599375	0.380625
-11.407001	113.704002	1019.005005	2.603125	2.721250	0.455000
-10.370000	107.542999	1006.744019	1.741250	2.791250	0.293125
-13.542000	105.408005	1014.856995	0.638750	1.465625	-0.533750
-13.176001	101.015999	1004.059998	0.266875	1.942500	-2.406250
-15.006001	103.151001	1008.268982	-1.496250	2.266250	-4.501875
-14.152000	113.582001	1009.001038	0.341250	2.253125	-3.268125
-22.264999	120.658005	1016.565002	-0.608125	0.717500	-1.124375
-14.701000	115.107002	1015.955017	3.990000	1.106875	-1.001875
-13.786000	127.978004	1014.247009	4.541250	5.075000	-0.498750
-29.707001	121.512001	992.775024	4.348750	4.878125	-0.507500
-29.097000	136.884003	1001.376038	-2.340625	1.929375	1.093750
-28.792000	119.804001	1018.028992	-3.928750	4.007500	0.004375
-28.548000	113.947998	1017.480042	-3.591875	5.346250	-0.341250
-32.695999	100.650002	1016.687012	-7.590625	6.728750	0.962500
-35.624001	96.441002	1025.958984	-11.935000	9.436875	1.610000
-50.935001	87.718002	1010.343018	-12.678750	10.469375	2.240000
-58.987000	85.095001	1021.384033	-12.512500	6.313125	2.139375
-56.547001	71.308998	1012.051025	-10.600625	7.402500	1.579375
-50.813000	68.442001	1010.098999	-9.603125	6.663125	1.330000
-60.024002	72.406998	996.557007	-10.075625	5.569375	1.456875
-57.340000	62.890999	1001.986023	-14.599375	5.293750	2.555000
-65.514000	39.406002	1031.327026	-13.820625	4.357500	1.920625
-65.148003	38.552002	1043.039062	-12.162500	3.640000	1.662500
-81.434998	19.398001	1009.611023	-5.066250	7.328125	2.450000
-83.997002	16.531000	984.356995	-6.168750	-0.345625	1.229375
-75.517998	21.472000	1017.174988	-7.739375	-3.250625	0.035000
-68.869003	6.283000	1007.842041	-3.561250	-3.631250	-1.728125
-62.403000	17.507000	1003.694031	-5.215000	-11.186875	-1.316875
-52.826000	2.623000	1020.591003	-7.183750	-18.480000	-1.316875
-46.970001	-12.566000	1033.462036	-5.521250	-12.521250	-1.588125
-40.015999	-12.322001	1017.541016	-2.568125	-5.639375	-1.207500
-31.476000	-2.318000	1010.770020	0.170625	-0.196875	-0.800625
-30.683001	4.331000	1017.174988	1.351875	-3.198125	-0.818125
-28.243000	1.342000	1006.317017	-0.988750	-4.173750	-0.468125
-23.668001	-7.076000	1016.626038	-1.575000	-5.411875	-1.163750
-22.936001	-1.220000	1019.737000	-0.301875	-5.862500	-2.218125
-8.784000	-3.294000	1034.682007	-1.925000	-8.688750	-2.695000
-15.860001	-2.928000	1016.504028	-4.055625	-3.653125	-1.907500
0.061000	-16.958000	1006.134033	-3.119375	-4.379375	-1.395625
9.821000	-16.409000	1024.921997	-1.868125	-6.138125	-1.561875
5.246000	-24.095001	1027.362061	6.321875	0.910000	-2.975000
-9.150001	-7.930000	989.054016	2.585625	-2.314375	-1.645000
6.832000	-3.172000	1006.927002	-3.364375	-5.258750	0.415625
20.984001	-7.930000	1023.458008	-5.088125	-9.051875	-1.408750
16.348000	-27.205999	1008.513000	-4.287500	-10.220000	-2.485000
32.757000	-9.760000	1041.941040	-2.817500	-11.471250	-1.198750
28.792000	-15.067000	1016.260010	2.559375	-7.455000	-1.841875
40.260002	-7.808000	1021.567017	1.106875	-8.833125	-0.218750
42.761002	-18.300001	1006.439026	0.901250	-5.831875	-2.450000
59.475002	-8.235000	1023.397034	-4.348750	-6.133750	-1.286250
52.154999	-11.407001	1013.148987	-5.950000	1.439375	-1.378125
53.253002	-28.975000	1006.682983	-3.876250	0.223125	-0.945000
53.680000	-23.180000	1009.428040	-2.423750	-0.301875	-0.161875
56.242001	-25.132000	1021.262024	-0.415625	-2.021250	-0.638750
57.827999	-15.555000	1015.406006	1.286250	0.511875	-0.476875
55.632000	-20.984001	1018.028992	-1.168125	-1.255625	0.087500
59.230999	-26.596001	1014.186035	-0.542500	-0.048125	-0.844375
52.582001	-25.986000	1000.156006	-2.047500	0.122500	-1.303750
49.043999	-21.167000	1000.583008	-0.245000	-0.568750	-1.706250
57.950001	-26.047001	1026.568970	-0.135625	-3.298750	-0.931875
58.804001	-22.875000	1009.184021	-1.277500	2.231250	-0.087500
61.549000	-25.071001	1014.552002	-4.488750	0.940625	0.258125
59.292000	-34.831001	1022.848022	-5.831875	4.182500	0.205625
59.597000	-35.868000	1008.208008	-4.930625	3.473750	-0.892500
56.608002	-33.549999	1002.840027	-5.101250	2.314375	-0.778750
51.728001	-41.480000	1012.478027	-5.254375	2.703750	0.796250
47.458000	-41.236000	1011.989990	-5.223750	2.699375	0.468125
55.815002	-49.653999	1021.079041	-2.310000	0.240625	-1.115625
45.872002	-43.126999	1009.671997	-0.612500	2.117500	-0.673750
59.230999	-38.368999	1020.225037	2.191875	0.008750	-0.608125
49.043999	-43.371002	1013.575989	5.005000	0.691250	-0.275625
50.996002	-34.526001	1016.199036	5.718125	0.840000	-0.376250
48.861000	-29.646000	1009.184021	3.810625	0.905625	0.266875
50.020000	-30.316999	1010.770020	3.115000	0.389375	0.153125
57.767002	-35.014000	1012.843994	0.573125	0.686875	0.516250
51.240002	-31.781000	1019.614990	-1.382500	0.433125	-0.148750
50.020000	-36.539001	1016.077026	-0.472500	1.531250	-0.752500
47.458000	-37.453999	1017.114014	-1.382500	1.181250	0.109375
41.907001	-40.687000	1012.051025	-0.595000	2.082500	0.218750
42.212002	-40.382000	1006.988037	-2.104375	1.771875	0.673750
38.247002	-42.700001	1021.505981	-1.841875	1.789375	0.153125
45.872002	-37.698002	1021.262024	0.507500	2.463125	-0.122500
46.482002	-33.062000	1018.212036	0.008750	1.960000	1.413125
49.348999	-36.417000	1008.574036	1.141875	2.406250	0.826875
38.979000	-36.234001	1005.036011	-0.503125	-2.340625	0.271250
45.445000	-29.402000	1011.989990	0.043750	-4.571875	-0.035000
49.288002	-33.733002	1025.410034	0.485625	-0.157500	0.638750
46.237999	-43.675999	1001.986023	0.315000	2.751875	0.612500
46.237999	-46.237999	1028.765015	0.113750	2.253125	-1.001875
35.746002	-40.382000	1027.666992	1.356250	3.377500	-1.548750
44.957001	-25.986000	1018.333984	-0.774375	2.791250	-1.089375
47.580002	-30.316999	1026.020020	-0.630000	2.800000	-0.896875
45.506001	-27.145000	998.387024	3.045000	0.459375	-3.508750
47.031002	-14.701000	1024.312012	6.562500	-1.028125	-3.714375
47.091999	-0.488000	988.871033	7.214375	1.763125	-3.622500
36.844002	-8.418000	1009.062012	2.795625	-2.480625	-4.340000
46.542999	-22.570000	1044.747070	-5.285000	7.179375	-2.738750
35.990002	-35.624001	1042.795044	-5.945625	24.876249	-0.980000
8.113000	-57.401001	1007.049011	-0.262500	11.370625	-1.229375
6.588000	-34.831001	983.869019	4.869375	-3.307500	-0.008750
13.725000	-36.722000	984.906006	10.386250	-5.591250	0.656250
23.851000	-15.311000	1010.038025	2.782500	-6.090000	-0.993125
18.361000	7.381000	1040.721069	-0.756875	-2.419375	-1.798125
27.816000	15.128000	1026.324951	0.555625	-2.865625	0.035000
40.260002	4.697000	1024.433960	3.434375	-2.336250	2.953125
16.958000	-10.919000	1021.994019	7.857500	8.299375	5.411875
19.520000	0.244000	1030.167969	6.855625	6.440000	4.764375
10.858000	-2.440000	1016.077026	1.198750	6.991250	1.141875
15.067000	12.627000	1001.192993	-2.358125	6.768125	1.566250
6.954000	1.830000	1018.151001	-0.441875	4.169375	1.658125
16.958000	7.564000	1015.161987	4.340000	1.697500	-0.393750
4.941000	6.588000	1012.051025	7.783125	4.326875	-0.026250
12.566000	24.583000	1009.428040	11.235000	3.106250	0.402500
-5.429000	24.461000	1017.114014	7.892500	5.114375	-0.131250
-1.708000	18.605000	1002.596008	2.196250	9.835000	-1.006250
-12.993000	32.025002	1010.953003	1.146250	13.195000	-2.060625
-17.812000	32.452000	1013.880981	3.412500	20.794374	-1.360625
-29.768000	41.174999	1018.760986	-0.923125	18.077499	1.741250
-52.948002	30.622000	1038.463989	-4.046875	22.225000	0.175000
-72.528999	41.663002	1026.020020	-5.298125	30.244375	-2.336250
-86.498001	33.244999	1004.731018	-3.714375	-0.017500	-2.528750
-64.781998	32.635002	1016.015991	-1.684375	-7.236250	-0.678125
-74.603004	21.472000	991.067017	-1.855000	2.585625	0.870625
-73.626999	25.254000	999.119019	-4.235000	-2.935625	1.531250
-79.543999	-0.244000	1030.167969	-4.930625	-7.586250	0.796250
-64.416000	-4.087000	1011.929016	-9.331875	8.343125	0.844375
-67.039001	12.444000	1000.278015	-17.053749	15.111250	5.560625
-96.929001	-13.847000	1007.903015	-7.778750	8.553125	7.542500
-102.113998	-18.910000	983.075989	-5.438125	4.029375	9.686250
-79.300003	-45.811001	1014.247009	-3.101875	-3.215625	5.245625
-73.078003	-6.100000	996.679016	-5.223750	-2.366875	1.085000
-86.010002	-35.746002	1034.133057	-6.868750	0.459375	-2.121875
-110.348999	-27.877001	1026.691040	-2.139375	8.461250	17.272499
-42.456001	-47.275002	1056.337036	5.897500	-6.339375	-2.047500
-81.739998	-29.951000	1012.539001	21.328125	-3.128125	-5.053125
-82.349998	2.196000	1015.772034	8.281875	-2.555000	-1.999375
-82.532997	15.311000	987.101990	-0.791875	6.523125	2.520000
-85.705002	-15.494000	983.015015	-14.485625	-4.983125	2.183125
-80.153999	-9.638000	1016.504028	-13.138125	-6.807500	-1.076250
-73.931999	-24.827000	1022.908997	-1.610000	1.811250	-1.933750
-83.326004	-34.160000	1035.170044	0.179375	-5.998125	0.433125
-24.521999	27.450001	1051.701050	0.258125	-4.952500	-0.035000
-81.374001	-4.209000	999.973022	5.455625	7.030625	-19.884375
-116.205002	-22.997000	996.984009	0.332500	-0.748125	-12.783750
-86.253998	-20.496000	1017.296997	2.222500	-3.705625	-2.051875
-79.605003	-4.148000	984.906006	3.561250	1.141875	4.641875
-60.389999	-12.871000	1023.092041	-6.475000	-4.602500	9.143750
-54.290001	-8.601000	1037.609985	-1.001875	-0.564375	3.530625
-53.375000	4.697000	1019.492981	4.173750	-2.747500	3.093125
-56.730000	-1.647000	1004.426025	7.441875	-3.220000	2.590000
-67.161003	4.026000	999.057983	2.760625	-5.044375	0.450625
-54.534000	-0.793000	1021.932983	-2.975000	-1.653750	3.110625
-49.532001	-12.505000	1025.776001	-0.551250	2.616250	3.272500
-49.593002	-18.422001	1007.231995	1.806875	3.399375	0.350000
-50.142002	-2.684000	996.739990	-0.013125	-1.701875	0.345625
-17.141001	-8.296000	1003.572021	7.910000	-3.504375	-0.625625
-53.192001	9.272000	1007.231995	7.603750	-4.711875	-10.193750
-68.685997	37.027000	1023.824036	4.331250	-8.050000	-6.400625
-48.617001	36.234001	1023.702026	1.124375	0.170625	2.983750
-16.469999	28.059999	1042.795044	-0.463750	0.039375	2.537500
-16.653000	10.309000	1042.855957	-1.531250	1.933750	-3.351250
-39.833000	1.952000	1029.802002	3.815000	-1.553125	-5.565000
-54.656002	16.958000	998.752991	3.731875	-0.126875	-4.536875
-52.704002	31.171000	1009.733032	-2.791250	0.043750	-0.717500
-34.160000	23.851000	1040.171997	-4.843125	2.948750	-2.576875
-34.952999	22.448000	1031.937012	1.404375	0.441875	-5.359375
-42.212002	24.766001	997.777039	6.313125	1.736875	-4.799375
-28.487000	19.825001	992.286987	0.175000	-1.356250	-7.065625
-43.493000	1.952000	1014.796021	-1.680000	-5.674375	-8.933750
-53.131001	-8.845000	1011.989990	0.848750	-0.993125	-4.309375
-49.776001	3.721000	1008.817993	-0.914375	0.306250	-1.133125
-36.112000	7.320000	1020.957031	-5.079375	2.743125	2.524375
-34.892002	4.392000	1036.695068	-4.326875	1.093750	1.505000
-59.841000	26.779001	1023.580017	-1.015000	-0.914375	4.541250
-38.796001	31.293001	996.007996	-1.015000	5.761875	10.010000
-16.042999	25.925001	1007.049011	-4.729375	0.555625	7.962500
-12.749001	12.749001	1032.973999	-3.473750	0.245000	0.358750
-32.330002	6.222000	1037.365967	-0.170625	0.091875	-4.147500
-44.529999	4.636000	1020.041992	5.005000	-0.013125	-4.904375
-40.260002	11.590000	986.919006	3.570000	2.034375	0.599375
-32.695999	-1.952000	998.143005	-3.040625	-3.023125	1.754375
-27.572001	-5.734000	1030.900024	-4.458125	-5.140625	1.133125
-52.887001	-15.555000	1021.200989	3.959375	-2.988125	-3.018750
-57.706001	11.468000	1000.643982	4.777500	-3.653125	1.951250
-20.191000	31.232000	1020.346985	-3.154375	2.240000	9.078125
-7.137000	18.910000	1040.598999	-2.747500	0.231875	3.329375
-25.559000	21.228001	1034.560059	1.295000	2.104375	-1.610000
-34.831001	14.213000	1015.650024	2.506875	1.413125	-2.349375
-38.247002	-5.124000	1013.880981	0.192500	1.312500	-1.596875
-31.354000	-5.124000	1023.945984	-1.684375	-4.230625	0.918750
-8.357000	19.947001	1009.855042	-4.366250	2.279375	8.570625
-10.004000	26.962000	995.153992	0.459375	-0.245000	-0.599375
-24.521999	38.125000	998.570007	1.159375	-3.088750	-4.138750
-17.934000	35.014000	1003.937988	-0.100625	0.931875	-0.341250
-7.747000	15.372000	1025.348999	-2.393125	-1.505000	-1.268750
-13.115000	2.257000	1037.244019	-1.448125	-0.205625	-5.184375
-48.617001	-1.647000	1027.666992	2.327500	-3.237500	-8.299375
-49.776001	1.220000	1024.067993	0.625625	0.892500	-0.721875
-22.753000	-4.148000	1009.794006	1.859375	0.853125	3.635625
-11.163000	5.490000	1006.255981	-3.263750	1.229375	3.788750
-7.808000	5.856000	1021.262024	-5.070625	-0.284375	4.768750
-3.660000	-7.259000	1018.395020	1.128750	1.575000	0.490000
-23.363001	0.610000	1001.497986	1.701875	0.096250	-2.419375
-33.489002	13.969000	1004.914001	-0.332500	-1.203125	1.890000
-23.118999	14.274000	1019.249023	-2.747500	1.750000	5.398750
-10.065001	15.799000	1032.242065	-1.474375	-1.128750	4.151875
-4.819000	23.485001	1022.054993	3.215625	1.680000	1.500625
-5.002000	14.152000	1002.413025	2.708125	-0.756875	-1.995000
-15.494000	-0.976000	1002.473999	-3.058125	-1.946875	-3.959375
-24.400000	-16.409000	1021.079041	-4.515000	0.245000	-2.139375
-26.047001	-15.006001	1024.800049	-3.591875	1.023750	1.421875
-29.036001	3.355000	1018.455994	2.905000	-2.038750	3.797500
-8.235000	18.910000	1009.916016	0.052500	1.968750	4.838750
6.771000	22.326000	1016.992004	-1.395625	-2.410625	1.028125
0.732000	16.592001	1025.714966	-2.226875	-1.706250	-2.191875
-14.884000	5.978000	1021.140015	-1.093750	2.100000	-2.069375
-18.177999	-7.137000	1011.014038	1.535625	-0.730625	-3.364375
-16.958000	-3.477000	1017.296997	-0.927500	0.896875	-1.058750
-15.128000	-8.723001	1011.014038	0.498750	1.334375	-0.682500
-21.228001	-0.488000	1000.643982	1.190000	-2.266250	-1.198750
-16.958000	12.810000	1011.502014	-0.161875	0.157500	0.240625
-0.976000	16.348000	1024.373047	-0.857500	-1.798125	1.386875
3.172000	12.444000	1034.864990	-1.736875	0.280000	0.052500
-0.610000	2.379000	1022.421021	-0.319375	-0.030625	-2.314375
-4.392000	-7.442000	1008.208008	0.809375	-3.797500	-3.955000
1.464000	7.442000	985.028015	-3.981250	0.883750	-1.351875
0.244000	-0.244000	989.725037	-11.935000	-3.198125	-2.283750
-11.956000	-25.559000	1042.368042	-18.051250	-4.878125	-2.926875
-9.455000	-36.355999	1057.495972	-8.675625	1.111250	3.325000
-2.318000	-27.877001	1052.738037	-1.693125	8.251250	6.632500
2.257000	-20.374001	1016.687012	1.067500	13.623750	3.920000
-12.261000	-37.332001	1007.842041	-2.130625	21.726250	-1.443750
-41.358002	-35.501999	1001.376038	1.675625	4.895625	-1.868125
-48.922001	-39.711002	995.153992	-1.876875	12.018125	1.570625
-46.360001	-32.818001	987.955994	-7.840000	9.813125	4.300625
-45.872002	-44.408001	1024.617065	-19.915001	12.565000	7.048125
-44.957001	-55.388000	1044.503052	-15.351875	10.500000	3.556875
-49.288002	-73.139000	1044.747070	3.517500	-0.476875	-3.246250
-74.724998	-62.708000	1007.963989	3.902500	2.730000	-5.271875
-77.714005	-53.924000	985.455017	-0.004375	0.048125	-3.342500
-75.884003	-60.268002	976.488037	-9.349375	1.369375	0.476875
-66.124001	-66.124001	996.434998	-17.272499	-3.425625	3.198125
-46.909000	-80.825005	1007.781006	-20.514376	-1.225000	2.441250
-54.411999	-107.360001	1018.578003	-17.653126	-3.425625	-2.323125
-68.259003	-105.652000	1037.365967	-10.539375	-3.053750	-1.421875
-58.804001	-124.562004	1013.088013	-3.193750	-2.765000	0.131250
-53.008999	-125.233002	1007.476013	-4.593750	-3.088750	0.971250
-59.414001	-116.998001	1006.682983	-8.194375	0.030625	2.826250
-60.268002	-135.664001	1017.480042	-6.107500	1.645000	3.080000
-47.396999	-120.474998	1012.478027	-1.509375	1.540000	3.010000
-35.075001	-124.683998	1014.186035	-0.393750	0.236250	-0.472500
-43.431999	-127.185005	1018.090027	4.029375	-1.303750	-3.250625
-46.237999	-129.197998	1026.874023	15.662500	-8.955625	-6.300000
-30.073000	-99.795998	956.174988	21.258125	-5.009375	-7.262500
-56.547001	-96.746002	954.650024	-4.790625	2.695000	-7.271250
-53.862999	-113.704002	1050.603027	-14.879375	-3.758125	-2.196250
-29.951000	-126.453003	1093.608032	10.745000	-8.106875	-1.478750
-13.847000	-91.561005	1016.382019	35.367500	-3.583125	-5.980625
-14.274000	-62.037003	962.031006	28.551250	-3.101875	-10.972500
-46.237999	-54.411999	996.801025	-2.909375	-9.384375	-6.601875
-26.657000	-75.212997	1066.341064	11.484375	-17.639999	-1.671250
4.209000	-46.177002	1041.697021	19.499374	-0.581875	2.191875
14.091001	-25.254000	993.567993	14.700000	4.812500	-1.347500
3.538000	-11.956000	997.289001	1.229375	5.941250	-4.506250
-18.849001	-13.603000	1018.212036	1.251250	5.643750	-5.626250
-22.753000	-17.323999	1016.626038	3.924375	4.261250	-3.596250
-19.153999	-12.322001	1014.064026	4.366250	3.867500	-1.413125
-10.309000	-8.784000	1020.530029	4.055625	3.110625	-0.595000
-11.041000	-3.904000	1028.399048	4.213125	2.568125	-3.749375
-24.461000	-9.516000	1019.309998	6.877500	2.139375	-6.488125
-33.306000	-5.856000	1005.341003	5.363750	2.310000	-3.565625
-29.280001	-3.538000	1001.986023	-0.004375	4.545625	0.096250
-22.570000	-3.782000	1014.918030	-1.846250	0.616875	1.028125
-25.437000	-13.786000	1014.429993	-1.391250	2.493750	-0.301875
-28.182001	-0.061000	1026.081055	-3.158750	2.178750	-0.236250
-20.801001	-1.403000	1031.144043	-0.625625	1.312500	1.391250
-25.925001	-1.952000	1019.309998	-0.214375	2.371250	-1.553125
-19.642000	-3.416000	1021.018005	-0.630000	2.848125	-2.056250
-42.151001	-6.466000	1012.600037	-0.406875	2.340625	-4.563125
-39.284000	-9.089000	1010.465027	-2.511250	1.933750	-0.980000
-32.146999	-1.769000	1019.066040	-2.493750	-0.398125	1.785000
-29.280001	-2.928000	1014.613037	2.432500	-1.426250	-1.876875
-47.640999	8.967000	987.955994	5.429375	-0.630000	-3.990000
-36.783001	10.858000	1008.085999	-5.005000	-0.004375	0.717500
-13.908000	-11.651000	1039.562012	-3.850000	3.570000	2.161250
-22.997000	-10.309000	1012.600037	3.902500	-1.111250	-3.771250
-42.395000	-17.934000	993.567993	-0.686875	0.048125	-3.478125
-55.265999	-32.635002	1013.393005	-4.576250	-2.607500	1.491875
