A_X [mg]	A_Y [mg]	A_Z [mg]	G_X [dps]	G_Y [dps]	G_Z [dps]
-4.575000	22.691999	1033.766968	-3.233125	3.075625	-0.472500
17.263000	10.309000	1011.867981	-3.666250	0.616875	0.923125
-7.076000	7.076000	1005.280029	-1.260000	2.345000	0.638750
-9.699000	5.246000	1018.395020	-1.640625	0.297500	-0.083125
-11.895000	11.407001	1016.015991	-4.326875	-0.450625	-0.008750
5.246000	2.684000	1007.842041	-2.769375	-0.796250	-1.028125
-5.429000	2.623000	1020.957031	-2.349375	-5.853750	-0.078750
1.586000	-3.294000	1014.186035	2.034375	-4.541250	0.280000
-2.196000	8.784000	1038.586060	-0.735000	-2.992500	-0.647500
17.141001	0.000000	1024.312012	-2.489375	0.210000	0.170625
14.091001	-5.612000	1016.747986	-3.456250	-3.285625	2.436875
14.701000	-14.884000	1010.892029	-4.055625	-1.404375	2.436875
14.030000	-29.402000	994.361023	-6.343750	-4.908750	1.977500
12.749001	-26.413000	1013.270996	-2.900625	-2.826250	-0.109375
23.607000	-7.808000	1045.906006	3.451875	-3.333750	1.356250
27.572001	2.684000	1046.333008	-4.777500	-2.918125	3.486875
16.896999	-1.342000	1013.454041	-2.065000	3.482500	5.919375
-20.252001	-4.514000	1022.054993	0.840000	0.446250	4.926250
41.053001	-12.993000	985.515991	0.914375	2.751875	1.369375
21.837999	-24.217001	1050.420044	16.961876	0.612500	4.235000
39.161999	-9.516000	1049.870972	-2.253125	-2.607500	4.663750
-14.884000	15.433001	990.640015	-7.997500	5.630625	4.453750
28.609001	6.222000	1019.309998	2.012500	1.413125	-0.144375
12.993000	4.697000	1036.207031	2.047500	0.148750	1.946875
36.539001	-23.668001	1042.428955	-12.871250	7.831250	0.476875
28.182001	-32.269001	1038.036987	-15.050000	5.595625	2.861250
-41.297001	13.725000	975.023987	1.194375	2.340625	0.061250
23.485001	10.736000	1009.549988	1.216250	-12.171250	-4.685625
-11.651000	-14.335000	1069.696045	-13.842500	-15.929375	-6.111875
20.984001	-28.609001	969.778015	-9.992500	1.111250	-13.033125
25.864000	-25.986000	1030.534058	2.668750	-9.091250	-14.721875
34.526001	-26.169001	995.825012	1.881250	2.248750	-12.941250
27.023001	-44.774002	1029.009033	-0.634375	0.043750	-7.030625
54.716999	-56.913002	1001.924988	0.240625	3.115000	3.154375
12.566000	-31.903000	1031.692993	-3.373125	4.978750	7.516250
12.444000	-55.021999	1009.611023	-2.073750	9.743125	4.186875
13.847000	-55.632000	982.039001	-7.161875	4.961250	-2.476250
9.333000	-52.033001	1006.622009	-8.701875	-1.281875	-0.958125
-9.211000	-66.612000	1008.208008	-5.031250	3.705625	-2.515625
6.405000	-70.698997	1015.283997	1.570625	2.830625	-2.870000
10.675000	-68.685997	996.434998	4.073125	3.193750	-3.023125
18.849001	-76.860001	1019.981018	2.528750	1.203125	-2.178750
0.061000	-68.137001	1033.035034	2.485000	1.229375	0.800625
-32.208000	-96.196999	1013.027039	-0.245000	5.193125	5.888750
6.283000	-66.306999	1035.047974	0.341250	-1.592500	7.472500
47.275002	16.958000	1035.109009	-3.504375	6.387500	6.991250
37.027000	99.795998	1007.231995	-8.693125	14.446250	9.883125
32.574001	146.643997	956.419006	-15.990625	29.378124	19.814375
7.747000	79.178001	1002.718018	-17.639999	22.071875	33.595627
-33.977001	42.517002	989.114990	-3.224375	12.578125	33.096874
-80.581001	-7.320000	1007.658997	15.260000	0.048125	13.842500
-48.861000	-7.259000	1008.940002	26.512501	-7.962500	-1.911875
-45.079002	16.104000	1040.904053	27.597500	0.796250	-5.670000
-48.799999	-15.372000	1027.118042	11.488750	6.199375	-8.010625
16.836000	-16.896999	989.419983	-2.323125	-3.080000	-4.676875
-57.096001	-81.374001	997.716003	-11.278750	2.721250	1.636250
-59.230999	-59.475002	1016.687012	2.660000	-2.791250	-2.953125
-82.289001	26.535000	1034.499023	14.665000	-1.369375	-19.171249
4.270000	67.282997	1061.583008	12.775000	-0.227500	-31.863125
-49.715000	95.098999	1021.140015	-3.543750	-2.996875	-37.550625
-9.699000	-90.767998	1045.661987	-12.950000	5.670000	-31.836876
-37.088001	-169.397003	1065.974976	-6.457500	5.433750	-22.999374
-67.892998	-330.985992	996.801025	7.026250	6.829375	-8.701875
-87.351997	-296.704010	1065.853027	20.440001	-8.938125	-10.132500
-35.806999	-292.921997	1055.971069	16.165625	2.226875	7.030625
-108.580002	-272.914001	998.875000	18.969999	4.536875	8.365000
-130.296005	-198.372009	999.606995	15.566250	4.103750	7.507500
-143.289001	-131.333008	993.507019	10.058125	4.655000	-11.383750
-47.763000	-109.068001	1050.664062	-9.900625	-4.414375	-13.671875
-23.302000	-131.272003	1014.491028	-19.915001	9.896250	-3.718750
-79.483002	-55.205002	961.970032	-3.158750	13.269375	4.974375
-61.000000	-68.930000	996.923035	-4.401250	-5.267500	-1.229375
-27.877001	-64.050003	1048.712036	-14.735000	-1.426250	9.463125
1.525000	-107.909004	1002.718018	-8.343125	-6.671875	19.145000
-26.596001	-92.780998	989.237000	8.295000	-14.288750	38.307499
-87.778999	-105.591003	1048.223999	7.511875	-15.019375	12.976250
16.469999	-18.849001	996.069031	-8.106875	-22.789375	1.933750
-25.742001	-0.915000	1021.627991	-19.678749	-19.101250	2.703750
68.625000	-9.516000	965.630005	-27.715626	-24.014376	3.154375
-27.511000	83.387001	1024.617065	-9.388750	-17.911249	18.287500
-94.306000	166.042007	1019.309998	-22.977501	-41.409374	11.488750
68.197998	102.480003	964.653992	-5.770625	0.616875	18.969999
-23.241001	142.740005	971.119995	25.532499	55.580002	12.245625
31.415001	178.242004	1008.268982	12.735625	20.930000	8.365000
2.562000	137.250000	1012.661011	9.139375	4.195625	12.123125
10.553000	154.574005	1037.792969	14.245000	-2.060625	14.516250
32.269001	143.410995	1063.046997	19.897499	19.285000	16.537500
24.705000	186.964996	1061.094971	24.346874	-5.215000	12.302500
55.388000	218.867996	998.936035	4.296250	-4.904375	3.460625
-7.381000	97.844002	1020.530029	-16.213751	10.893750	12.035625
-58.681999	47.153000	1096.414062	-28.402500	18.418751	-2.375625
-6.100000	-79.910004	1076.100952	-15.028125	26.713751	-8.404375
-71.003998	-14.518001	1003.145020	25.742500	-1.229375	-5.525625
-43.126999	58.681999	1095.803955	18.051250	3.653125	-16.275000
-69.905998	90.462997	1005.036011	6.580000	-7.218750	-9.148125
-77.409004	91.500000	1039.683960	-8.141875	-1.903125	-16.975000
-67.161003	124.867004	1032.058960	-20.330626	14.166250	-12.460000
-66.001999	76.189003	982.100037	-24.333750	15.198750	-9.887500
-60.756001	68.625000	974.109009	-3.438750	2.743125	-6.195000
-75.517998	74.359001	983.442017	6.181875	-0.953750	-12.543125
-66.734001	50.874001	894.565002	18.519375	-0.363125	-16.506874
-61.183002	2.379000	990.822998	22.645000	5.372500	-20.553749
-51.667000	-99.795998	972.889038	32.689999	-18.514999	-9.410625
-59.170002	-127.429001	1020.895996	23.016874	-6.190625	7.748125
-62.037003	-142.190994	1076.100952	5.901875	-10.224375	19.328751
-70.577003	-108.885002	1059.936035	-1.929375	2.034375	25.326876
-87.108002	-78.995003	1028.703979	-1.697500	-2.358125	24.333750
-60.268002	-14.091001	1127.828979	-1.111250	11.593750	8.710625
-35.501999	23.363001	1013.515015	-5.923750	-0.030625	4.191250
-34.709000	26.169001	1002.656982	-11.615625	2.498125	6.702500
-53.131001	5.368000	1004.791992	-25.983126	11.296250	0.306250
-63.744999	5.734000	1021.018005	-23.436874	10.683750	1.430625
-69.723000	-9.760000	1012.051025	-11.606875	-0.525000	4.891250
-61.854000	-8.235000	1009.671997	0.529375	2.423750	0.761250
-53.924000	-2.379000	1009.184021	10.066875	-2.751875	-1.986250
-42.700001	10.370000	1020.835022	0.861875	0.730625	-3.329375
-48.007000	-6.710000	1015.588989	-2.450000	4.606875	-2.130625
-45.993999	-3.233000	1007.598022	-2.563750	-1.255625	-0.879375
-66.794998	-18.239000	1010.587036	3.640000	0.236250	1.684375
-54.716999	-17.568001	1017.114014	-0.144375	-1.903125	-1.544375
-55.875999	-12.871000	1002.108032	-2.690625	0.262500	-3.259375
-53.008999	-10.736000	1018.333984	-4.151875	-2.030000	-6.558125
-48.983002	-27.632999	1024.983032	-10.775625	2.288125	-6.890625
-57.950001	-26.047001	1010.098999	-8.518125	1.706250	-4.431875
-52.948002	-27.328001	1010.403992	-3.027500	0.468125	-4.283125
-66.306999	-23.851000	1024.129028	-1.452500	-0.835625	-1.308125
-58.011002	-13.969000	1029.313965	-0.131250	1.461250	-1.365000
-50.630001	-16.409000	1018.517029	-2.835000	2.034375	-0.358750
-44.469002	-23.363001	997.655029	-1.977500	1.837500	-0.175000
-46.299000	-27.084000	1019.432007	-0.450625	-2.170000	-1.872500
-56.181000	-32.085999	1032.425049	-0.914375	-1.308125	-3.027500
-54.656002	-19.093000	1027.666992	-0.240625	1.281875	-2.174375
-52.582001	-23.729000	1007.536987	-0.166250	1.977500	1.500625
-65.636002	-34.160000	998.814026	-1.093750	3.885000	4.620000
-67.404999	-42.090000	995.885986	3.416875	-0.966875	3.622500
-55.998001	-38.612999	1004.853027	5.079375	-0.026250	1.771875
-50.386002	-25.620001	1001.132019	4.073125	-2.248750	-0.249375
-46.848000	-21.655001	1015.710999	4.515000	-1.623125	-1.190000
-40.869999	-10.004000	1002.718018	0.472500	-1.220625	-0.319375
-43.431999	-5.246000	990.884033	-1.400000	0.253750	2.528750
-49.288002	2.501000	998.997009	-2.677500	-2.730000	3.276875
-53.192001	27.145000	1038.402954	-5.110000	-1.916250	1.631875
-55.144001	82.044998	1077.015991	-2.931250	-4.755625	-2.625000
-44.957001	92.292999	1054.140991	-8.238125	4.523750	-1.522500
-60.938999	89.731003	1022.908997	-4.011875	10.718750	-1.041250
-51.484001	114.741005	1024.800049	2.528750	6.330625	0.813750
-39.223000	135.054001	1013.332031	1.308125	4.904375	-1.741250
-18.361000	106.262001	987.712036	6.348125	2.909375	0.590625
-67.832001	30.500000	1002.962036	6.365625	7.695625	-1.736875
-42.456001	19.153999	990.945007	2.130625	-2.760625	-9.520000
-57.827999	-26.291000	994.178040	0.796250	7.284375	-13.234375
-58.194000	-11.529000	1032.729980	7.266875	-2.900625	-18.633125
-77.287003	16.287001	994.299988	14.363125	2.244375	-23.025625
-75.701004	43.920002	1051.213013	16.546249	-2.078125	-38.171875
-52.582001	32.390999	1027.301025	9.213750	6.763750	-35.279999
-43.126999	-12.505000	982.588013	6.908125	5.897500	-32.471249
-63.318001	-129.442001	1053.592041	3.675000	-2.458750	-24.018749
-77.348000	-243.878006	1077.565063	-3.171875	3.928750	-26.271875
-70.210999	-257.175995	1090.863037	6.243125	1.085000	-22.413124
-98.087997	-265.350006	1050.480957	10.460625	9.170000	-15.308125
-99.917999	-235.399002	1039.683960	18.742500	9.025625	-5.595625
-86.132004	-195.932007	994.910034	29.404375	12.451250	3.508750
-109.312004	-151.097000	1002.901001	12.180000	-4.108125	2.104375
-76.799004	-82.472000	1021.322998	-0.721875	6.943125	3.946250
-40.625999	-48.007000	967.093994	-3.154375	-4.042500	7.927500
-58.743000	-14.274000	984.479004	-9.292500	-8.133125	19.446875
-18.726999	-25.620001	1024.250977	-4.733750	7.962500	35.796249
-76.189003	-18.910000	996.312988	-12.118750	6.050625	36.268749
-33.489002	-19.459000	973.377014	-10.828125	-1.185625	24.233126
-48.922001	13.847000	988.932007	-13.956250	0.971250	18.795000
-51.972000	2.806000	991.981995	-25.891251	-11.195625	16.660000
-59.353001	29.219000	993.018982	-27.199375	-11.375000	10.443125
-41.174999	94.550003	989.541992	-29.054375	-2.301250	5.201875
-52.338001	146.095001	978.440002	-27.741875	-11.506250	3.644375
-11.346000	231.983002	1003.267029	-28.564375	-33.941250	19.490625
-110.227005	255.712006	1040.843018	-30.384375	-21.385000	18.291876
-76.432999	295.789001	1089.765015	-14.105000	21.984375	6.173125
-74.176003	212.951004	1060.240967	-2.056250	15.636250	12.149375
-38.368999	159.576004	1116.056030	13.881875	5.670000	8.338750
1.586000	175.192001	1157.230957	19.866875	17.793125	6.667500
-11.102000	138.225998	1026.935059	15.395625	-1.566250	1.386875
-32.146999	71.308998	977.281006	13.339375	13.383125	4.305000
-47.519001	33.244999	994.117004	14.354375	4.077500	-6.164375
-73.321999	1.891000	998.752991	9.235625	2.161250	-11.650625
-56.486000	-19.093000	989.786011	4.620000	3.185000	-18.121250
-43.249001	-23.363001	1009.794006	1.185625	4.869375	-13.142500
-85.217003	-57.096001	981.002014	0.743750	-4.746875	-14.463750
-55.937000	-93.695999	989.541992	-0.507500	-8.356250	-9.257500
-105.347000	-147.376007	1017.296997	-0.984375	-5.661250	-6.326250
-59.597000	-168.055008	1044.563965	-3.911250	-5.298125	-12.197500
-63.440002	-135.725006	1029.192017	-1.767500	-6.741875	-13.636875
-69.357002	-87.778999	1021.322998	-3.766875	1.325625	-10.736250
-46.055000	-73.749001	1059.143066	-8.474375	5.136250	-3.508750
-68.259003	-83.082001	1013.759033	-6.413750	3.609375	-1.290625
-56.059002	-78.812004	1010.343018	-2.358125	4.935000	-1.728125
-55.998001	-88.999001	1015.528015	-6.553750	1.246875	0.275625
-52.764999	-84.119003	990.762024	-3.408125	5.215000	2.231250
-57.462002	-78.323997	999.973022	1.771875	2.003750	4.821250
-80.703003	-73.321999	970.388000	8.758750	3.766875	7.844375
-60.451000	-57.950001	1001.315002	8.474375	0.783125	8.216250
-61.671001	-37.271000	994.605042	8.793750	-3.408125	9.703750
-82.837997	-33.244999	1008.390991	8.968750	0.498750	6.794375
-63.623001	-7.747000	1013.759033	8.868125	-4.038125	5.985000
-62.830002	-11.712000	1017.601990	4.519375	-4.589375	3.854375
-66.368004	-10.797000	1034.682007	0.848750	4.178125	0.332500
-49.532001	-6.527000	1030.167969	-3.885000	2.069375	-0.301875
-57.462002	-6.222000	1007.171021	-4.143125	1.758750	0.525000
-59.292000	-14.030000	1004.731018	-0.940625	0.555625	-0.980000
-64.293999	-8.052000	1014.064026	-0.140000	1.185625	-0.293125
-49.593002	7.503000	1021.200989	5.031250	-2.165625	1.233750
-65.758003	-14.274000	1021.932983	5.560625	-1.093750	1.750000
-63.806000	-55.510002	1024.677979	3.311875	-0.682500	1.920625
-82.106003	-132.979996	1064.510986	-6.575625	1.133125	-1.540000
-75.091003	-196.847000	1068.354004	-7.809375	-4.195625	-5.919375
-35.624001	-207.460999	1006.072998	-3.981250	10.460625	-4.326875
-57.950001	-179.706009	969.595032	7.240625	4.943750	3.705625
-100.833000	-167.139999	963.617004	9.200625	5.674375	-0.258125
-65.086998	-91.987999	959.957031	4.707500	11.309375	-1.750000
-112.789001	-65.331001	984.783997	3.062500	3.626875	12.031250
-62.525002	-41.114002	974.414001	-2.751875	20.908125	5.228125
-101.320999	-22.264999	960.079041	-5.801250	-0.761250	19.468750
-134.139008	-30.378000	959.346985	-6.781250	6.352500	10.854375
-72.346001	102.541000	1041.574951	6.177500	-16.900625	-3.036250
-30.683001	159.270996	1071.464966	18.790625	-42.586250	4.064375
3.111000	359.290009	1098.792969	4.108125	-7.945000	11.379375
-33.549999	383.812012	1068.598022	-25.125626	15.028125	26.149376
-45.323002	323.421997	1028.886963	-27.238750	5.792500	18.650625
-22.753000	306.037018	1060.911987	-11.891250	-1.216250	19.844999
-80.641998	266.386993	1069.390991	-12.853750	10.136875	15.290625
-42.944000	235.033005	980.087036	-8.806875	15.706250	-1.509375
-22.997000	184.830002	981.916992	-4.878125	5.866875	-2.765000
-88.023003	131.699005	1023.335999	-1.881250	-4.956875	-15.710625
-17.446001	101.077003	1056.031982	18.506250	-1.225000	-16.082500
-51.545002	123.952003	1050.603027	24.591875	26.792500	-19.827499
-69.784004	124.135002	1055.848999	17.272499	9.751875	-13.676250
-73.200005	33.062000	1029.313965	5.044375	19.276251	0.507500
-7.808000	-112.179001	983.502991	0.918750	25.326876	-5.512500
-176.412003	-123.830002	1054.446045	-21.656250	3.430000	2.699375
-130.235001	-338.916016	926.468018	-29.666876	12.311250	6.282500
-205.447998	-375.210999	941.046997	-20.842501	9.406250	2.432500
-190.320007	-418.520996	978.622986	11.475625	-10.136875	1.513750
-206.973007	-405.955017	1083.177002	20.260626	-31.110624	-6.050625
-133.772995	-387.959991	1096.230957	30.660000	-23.979376	-13.282500
-116.815002	-299.753998	1030.290039	26.320000	-8.343125	-14.402500
-118.950005	-200.568008	965.569031	32.926250	-6.300000	-14.678125
-114.802002	-130.479004	992.165039	16.528749	-18.445000	-12.722500
-60.878002	-66.306999	993.994995	0.118125	-8.715000	-11.191250
-30.012001	-15.250000	1007.720032	-13.374375	-9.148125	9.130625
-16.592001	18.300001	998.752991	-18.410000	1.216250	22.592501
-57.340000	40.504002	980.453003	-19.770624	7.376250	33.783749
-47.945999	82.472000	978.317993	-21.695625	2.590000	11.248125
-20.069000	110.593002	1014.064026	-19.420626	-6.190625	12.105625
-61.000000	83.752998	1041.574951	-15.233750	0.035000	10.045000
-39.955002	51.240002	1032.546997	-11.681250	-9.716875	2.021250
-44.408001	22.448000	1033.339966	-5.757500	1.063125	-3.176250
-30.195000	53.192001	1020.895996	14.940625	0.118125	-11.930625
-12.749001	58.804001	1033.096069	19.302500	-5.442500	-2.135000
-32.330002	30.256001	1033.156982	8.570625	6.636875	-1.365000
-31.110001	27.267000	1012.721985	4.891250	2.629375	2.021250
-44.834999	14.030000	1028.703979	0.678125	1.820000	3.316250
-57.645000	15.616000	1015.893982	3.403750	7.791875	4.186875
-60.146000	-0.549000	1010.587036	2.878750	0.721875	0.380625
-57.462002	15.799000	1014.429993	-1.750000	2.463125	-1.610000
-59.109001	4.514000	1008.025024	-2.524375	0.608125	-4.038125
-61.549000	-2.745000	1032.608032	-1.596875	-2.835000	-3.933125
-59.597000	-7.930000	1022.604004	-2.493750	2.975000	-3.180625
-59.597000	-5.185000	1019.492981	1.518125	-0.183750	-5.184375
-62.952000	-6.405000	1017.480042	1.557500	1.645000	-5.114375
-49.897999	-0.305000	1011.014038	1.763125	2.975000	-2.800000
-54.290001	-14.091001	1010.770020	2.371250	2.835000	-1.330000
-56.669003	-8.113000	1005.523987	0.043750	1.159375	-1.295000
-58.621002	-7.503000	1001.315002	-2.738750	0.691250	-2.524375
-61.366001	-4.209000	1016.260010	-2.843750	-0.774375	-3.075625
-55.632000	-6.161000	1015.223022	-1.443750	-0.048125	-3.215625
-61.243999	-11.590000	1035.230957	-2.485000	0.665000	-3.836875
-57.462002	-12.810000	1016.992004	-1.938125	1.728125	-3.456250
-57.889000	-11.834001	1007.963989	-0.315000	1.478750	-2.878750
-63.074001	-11.590000	1012.600037	-3.311875	0.603750	-1.522500
-64.050003	-17.019001	1023.763000	-2.191875	2.397500	-1.658125
-61.061001	-30.012001	1018.517029	-2.550625	0.227500	-1.789375
-60.329002	-29.158001	1016.320984	-1.185625	1.885625	-1.636250
-72.163002	-27.084000	1011.135986	0.065625	1.671250	-1.365000
-58.926003	-30.683001	1015.588989	0.643125	0.861875	-1.032500
-65.514000	-17.995001	1012.661011	1.513750	0.743750	-1.115625
-59.779999	-13.237000	1009.489014	-0.087500	1.548750	-1.496250
-58.376999	17.995001	1016.138000	-1.754375	1.938125	-1.903125
-49.410000	91.195000	1044.015015	-5.088125	3.710000	2.734375
-40.564999	116.144005	1055.910034	-1.439375	5.398750	7.577500
-74.359001	101.138000	1061.034058	0.371875	13.085625	11.226250
-70.089005	92.842003	1007.720032	-0.157500	14.564375	4.650625
-65.391998	76.311005	1006.866028	2.817500	8.684375	-1.859375
-93.330002	97.599998	998.387024	10.171875	6.566875	-4.825625
-225.578003	195.078003	1026.935059	17.526251	-17.854376	-1.903125
-96.136002	76.615997	1017.419006	12.691875	4.427500	-13.483750
-68.930000	47.763000	1004.182007	5.836250	2.056250	-6.991250
-135.481003	70.760002	1022.177002	-4.558750	-1.894375	-4.580625
-112.972000	30.256001	944.890015	5.818750	9.681875	-6.825000
-133.406998	-10.980000	970.997986	19.346251	-3.163125	-10.806250
-66.489998	-93.390999	1003.632996	23.756250	-14.494375	-12.201875
-100.894005	-159.210007	1077.198975	0.560000	-16.183125	-12.201875
-87.961998	-232.654007	1097.817017	-6.409375	-12.311250	-9.633750
-104.309998	-251.320007	1032.546997	-9.305625	1.933750	-9.021250
-81.129997	-282.002991	1086.410034	-6.050625	-2.283750	-7.455000
-76.006004	-238.815002	993.690002	6.046250	4.952500	4.611250
-118.584000	-194.223999	968.619019	21.070000	6.251875	3.088750
-83.631004	-133.162994	999.911987	13.356875	-5.096875	1.343125
-68.259003	-100.650002	1023.763000	3.206875	1.605625	-0.192500
-49.410000	-65.636002	969.411987	-7.958125	5.573750	5.551875
-79.788002	-18.056000	999.241028	-12.346250	3.062500	10.871875
-58.376999	30.134001	992.653015	-11.799375	0.310625	15.815625
-49.532001	41.723999	1004.182007	-17.145624	-5.363750	17.443125
-42.700001	51.056999	1026.081055	-16.318750	-2.498125	16.756250
-31.659000	91.622002	1003.023010	-12.372500	-8.815625	16.476250
-27.267000	97.417000	1035.230957	-8.544375	-6.798750	10.430000
-59.353001	127.856003	998.387024	-8.894375	-5.000625	0.100625
-45.750000	174.337997	1008.635010	-2.944375	-2.778125	0.135625
-41.418999	193.553009	1111.420044	-5.180000	-0.595000	1.290625
-61.549000	212.341003	1037.915039	-6.033125	3.714375	-1.491875
-31.476000	181.475006	1047.796997	-5.648125	4.081875	-4.156250
-27.205999	158.783005	1032.425049	1.728125	0.756875	-4.313750
-18.483000	126.086998	1016.320984	7.437500	0.936250	2.896250
-43.737000	54.534000	1030.046021	1.229375	2.436875	3.701250
-37.698002	-19.153999	1007.476013	-5.092500	6.278125	0.415625
-46.482002	-40.992001	1011.135986	-3.088750	2.008125	-0.660625
-55.265999	-56.608002	1013.820007	-1.680000	-3.281250	-6.776875
-47.580002	-44.529999	997.533020	1.763125	-2.231250	-7.844375
-62.341999	-32.695999	1030.229004	2.520000	-4.668125	-7.813750
-48.434002	-12.139000	1036.390015	-3.985625	-0.945000	-6.855625
-49.043999	-34.892002	1003.755005	-6.833750	-1.150625	-5.285000
-63.744999	-39.771999	1013.454041	-4.620000	0.376250	-5.936875
-52.154999	-41.663002	1033.583984	-1.404375	-1.876875	-6.011250
-55.144001	-40.869999	1039.867065	-0.183750	3.491250	-3.823750
-50.751999	-44.042000	1023.153015	-0.354375	4.567500	-3.539375
-48.861000	-42.639000	1009.611023	3.644375	4.812500	-3.543750
-45.018002	-40.320999	1003.816040	1.640625	3.241875	-1.653750
-41.907001	-41.174999	1010.953003	-0.555625	3.342500	-2.524375
-52.459999	-36.478001	1006.866028	-1.133125	1.570625	-1.885625
-49.653999	-39.406002	1010.770020	0.446250	2.913750	-0.721875
-53.436001	-30.256001	1016.504028	1.820000	-1.365000	-1.929375
-58.011002	-14.945000	1023.763000	-0.848750	1.780625	-0.726250
-54.656002	-32.757000	1001.315002	-0.271250	0.997500	1.041250
-62.403000	-22.570000	1023.580017	2.909375	-1.417500	-0.008750
-61.243999	-20.374001	1028.582031	-0.848750	1.273125	-0.056875
-67.527000	-30.927000	1016.931030	-0.857500	2.078125	-0.997500
-59.658001	-21.106001	1015.223022	0.686875	1.780625	-1.841875
-52.094002	-15.311000	1008.452026	1.115625	1.400000	-0.927500
-54.656002	-11.956000	1018.212036	2.808750	-0.437500	-0.306250
-47.153000	-13.603000	1008.635010	1.351875	-0.214375	0.315000
-69.417999	-22.326000	1027.422974	-1.741250	0.367500	-2.121875
-57.035000	-24.156000	1004.304016	-1.719375	1.960000	-4.204375
-58.376999	-21.228001	1020.591003	1.163750	-0.170625	-4.200000
-56.547001	-17.263000	1019.798035	2.874375	1.168125	-2.476250
-58.132999	-26.047001	1012.234009	5.390000	0.910000	0.205625
-62.890999	-68.259003	1044.442017	4.261250	0.358750	1.933750
-84.667999	-115.473000	1040.537964	-0.376250	2.716875	0.778750
-60.389999	-152.255997	1011.197021	-2.340625	2.983750	-1.618750
-56.303001	-141.337006	980.453003	5.193125	4.248125	-4.226250
-58.316002	-105.591003	1006.866028	10.001250	-2.681875	-6.444375
-68.747002	-59.779999	1003.572021	13.916875	-0.778750	-4.169375
-78.385002	-36.417000	1005.890015	7.638750	0.323750	-2.611875
-59.841000	-39.833000	987.468018	-3.430000	4.156250	3.241875
-70.393997	-40.077000	1000.033997	-7.205625	6.063750	6.015625
-79.666000	-30.805000	1003.510986	-8.045625	2.034375	5.928125
-39.101002	-32.146999	971.913025	-6.020000	4.746875	4.173750
-63.379002	13.481000	968.192017	-2.261875	-8.023750	9.454375
-69.112999	48.373001	973.926025	-7.945000	2.266250	1.211875
-58.987000	79.788002	998.082031	-7.883750	-2.231250	-2.677500
-20.984001	71.858002	1021.505981	-8.028125	-5.740000	-6.304375
-25.375999	145.850998	1014.734985	-6.973750	3.762500	-13.479375
-73.321999	208.986008	1079.883057	8.500625	13.317500	-11.011875
-100.405998	298.290009	1163.453003	-0.748125	-8.321250	-10.316250
-61.122002	261.506989	1080.553955	-17.268126	-1.837500	-0.866250
-65.941002	192.943008	1032.119995	-5.442500	9.765000	17.184999
-86.070999	188.429001	1076.344971	-1.461250	4.830000	12.228125
-32.513000	167.322998	995.703003	-0.638750	-3.080000	7.739375
-41.723999	113.582001	1009.244995	-2.419375	-15.150625	4.655000
5.124000	55.632000	1028.338013	-0.240625	12.140625	-10.010000
-31.293001	21.350000	989.846985	9.436875	22.172501	-3.276875
-136.762009	-47.396999	1025.166016	6.203750	15.465625	-15.723750
-105.896004	-41.236000	1018.395020	6.225625	4.208750	-10.959375
-139.445999	-136.945007	999.911987	2.686250	13.273750	-7.682500
-128.832001	-176.167999	1000.217041	8.303750	14.389375	-1.277500
-153.292999	-293.166016	987.285034	3.001250	3.657500	-0.971250
-111.446999	-323.848999	1015.101013	0.708750	-6.273750	0.026250
-129.259003	-218.380005	1039.440063	-5.320000	2.117500	-3.797500
-139.751007	-186.904007	1035.536011	-4.064375	0.870625	-6.356875
-108.214005	-98.392998	1012.905029	-1.592500	0.463750	-8.273125
-77.104004	-59.109001	974.963013	-3.605000	1.671250	-1.106875
-97.173004	-35.624001	976.854004	-3.386250	-6.860000	8.719375
-120.474998	-33.916000	972.889038	-3.893750	-4.125625	18.291876
-95.953003	-31.659000	968.619019	-0.770000	-11.278750	14.603750
-105.286003	-20.007999	1012.843994	-4.073125	-12.709375	12.131875
-111.751999	-25.375999	1019.798035	-4.703125	-6.273750	7.546875
-110.348999	-28.059999	1013.575989	-1.168125	-4.996250	0.188125
-89.487000	-25.864000	1021.384033	3.202500	-5.083750	-1.194375
-95.160004	-1.342000	1024.250977	1.172500	0.647500	-0.700000
-72.590004	-16.896999	1008.147034	-1.146250	9.266250	2.191875
-85.643997	-6.893000	1022.177002	0.726250	3.959375	3.075625
-82.044998	-15.677000	1009.306030	0.446250	7.214375	6.247500
-84.240997	-18.483000	1017.601990	0.861875	6.702500	8.465625
-75.884003	-15.616000	1009.794006	3.202500	7.516250	9.638125
-87.840004	-8.723001	1011.197021	2.926875	-3.705625	3.661875
-105.103004	-11.651000	1012.539001	3.176250	-0.940625	1.824375
-106.139999	1.220000	992.226013	4.436250	0.682500	0.043750
-89.304001	0.427000	1011.562988	1.058750	-4.471250	-0.131250
-92.110001	-4.331000	1021.811035	-0.695625	-1.623125	0.153125
-89.304001	10.370000	1023.518982	-1.561875	2.703750	2.021250
-102.785004	4.026000	1017.114014	-3.653125	4.523750	2.743125
-99.674004	-16.104000	1018.212036	-1.518125	1.723750	1.763125
-97.234001	-21.167000	1017.601990	2.231250	-2.030000	0.210000
-99.795998	-11.895000	1005.768005	2.380000	2.384375	-3.338125
-93.573997	-20.740000	1000.583008	-1.150625	-0.376250	-2.835000
-98.942001	-17.812000	987.773010	-0.284375	-1.579375	-1.071875
-93.452003	0.488000	1008.268982	-0.406875	-2.660000	-1.220625
-92.232002	20.801001	1025.898071	-5.219375	-2.209375	-1.623125
-74.114998	103.761002	1030.167969	0.275625	-4.291875	-2.646875
-59.597000	156.281998	1024.860962	6.895000	3.661875	3.679375
-55.937000	166.774002	1002.046997	7.271250	4.388125	10.968125
-106.567001	156.037994	991.127991	14.455000	7.564375	4.738125
-109.250999	152.378006	1032.058960	18.655001	-10.381875	-13.295625
-65.758003	197.639999	1046.881958	10.565625	-7.857500	-19.989374
-53.618999	121.877998	1011.562988	-3.836875	-3.342500	-24.106251
-65.819000	45.079002	1004.791992	-16.808750	-21.826876	-23.555000
-67.527000	17.202000	991.250000	-12.035625	-12.250000	-20.339375
-73.016998	-30.683001	1002.473999	-3.530625	4.340000	-23.100000
9.638000	-80.215004	991.432983	6.895000	-3.373125	-19.368126
-167.018005	-88.571999	987.223999	15.203125	5.201875	-22.981874
92.475998	-264.373993	1079.943970	4.703125	10.596250	-28.555626
-78.750999	-241.559998	1138.077026	7.437500	17.237499	-5.070625
-67.587997	-241.376999	1115.750977	-10.788750	14.647500	-12.805625
-65.391998	-257.847015	1053.531006	-16.218124	12.442500	-12.516875
-74.359001	-265.532990	1021.627991	-8.631875	-0.105000	-0.144375
-112.362000	-217.098999	992.043030	-3.136875	9.065000	1.242500
-96.380005	-203.617996	1019.981018	-10.246250	4.086250	-6.177500
-63.623001	-129.197998	1010.708984	-11.165000	-3.745000	6.396250
-106.201004	-106.627998	976.671021	-17.727501	-1.386875	18.055626
-85.400002	-73.749001	950.441040	-10.211250	14.695625	31.303125
-178.729996	-76.067001	952.270996	-10.333750	0.371875	36.456875
-140.787994	-79.483002	962.458008	-9.174375	-1.513750	20.930000
-160.125000	-73.261002	983.320007	-11.983125	-11.851875	8.500625
-60.633999	-45.018002	973.559998	-10.841250	-3.136875	-3.587500
-95.038002	65.636002	1023.580017	-18.764376	3.775625	2.148125
-91.072998	75.091003	983.015015	-19.858126	-6.186250	-2.174375
-92.049004	123.708000	1004.182007	-1.544375	-1.841875	5.241250
-109.190002	126.514000	1080.126953	14.100625	-11.528125	7.980000
-59.963001	113.033005	1056.398071	12.705000	-14.376250	9.205000
-72.101997	86.132004	1066.097046	2.660000	-1.365000	17.631250
-60.451000	31.537001	1067.438965	-0.752500	-7.131250	15.058750
-70.150002	-22.387001	1023.213989	1.828750	2.555000	4.729375
-63.195999	-17.629000	996.312988	7.896875	4.930625	-4.624375
-67.404999	-23.973000	973.316040	16.257500	-5.420625	0.984375
-44.774002	-39.894001	998.692017	17.889376	-2.489375	-1.093750
-60.146000	-32.085999	1018.028992	7.770000	-4.265625	-0.700000
-79.422005	-48.373001	1029.863037	-2.104375	-7.035000	-11.025000
-46.482002	-49.593002	1014.064026	-3.648750	-4.593750	-17.836876
-51.118000	-43.126999	1023.092041	-2.353750	-4.003125	-19.705000
-48.678001	-22.326000	1019.066040	-1.890000	-0.161875	-10.994375
-57.522999	-36.417000	1018.760986	-0.616875	0.577500	-2.065000
-50.751999	-25.925001	1029.557983	2.983750	1.806875	1.802500
-60.084999	-41.480000	1037.244019	2.913750	-2.502500	3.132500
-46.848000	-32.208000	1029.436035	0.630000	-1.404375	2.428125
-46.909000	-20.801001	1017.541016	-0.455000	3.508750	1.513750
-55.021999	-37.698002	1013.637024	-1.242500	6.365625	0.616875
-55.449001	-46.299000	992.226013	1.566250	3.836875	0.210000
-61.061001	-31.232000	1004.731018	3.850000	-0.840000	0.153125
-59.292000	-23.546000	1014.979004	4.803750	0.192500	-3.106250
-54.107002	-25.925001	1028.338013	7.262500	0.905625	-0.923125
-49.593002	-46.542999	1014.674011	5.700625	1.946875	-1.750000
-46.848000	-33.611000	1009.306030	4.799375	0.240625	-2.008125
-66.124001	-36.234001	1002.778992	0.984375	-0.621250	-0.131250
-65.574997	-34.526001	1022.481995	-0.148750	-0.105000	0.616875
-64.233002	-59.597000	1047.308960	0.533750	1.098125	1.518125
-82.289001	-129.259003	1059.630981	-2.848125	-0.875000	-6.260625
-70.028000	-183.854004	1045.479004	-9.887500	6.085625	-10.998750
-75.152000	-231.007004	1021.750000	-11.165000	10.193750	-22.981874
-50.142002	-120.963005	965.630005	0.630000	12.376875	-18.094999
-80.520004	-154.451996	946.658997	4.698750	-1.137500	-9.222500
-69.845001	-101.260002	986.919006	6.339375	9.721250	-5.333125
-81.618004	-17.202000	1017.296997	1.706250	19.004999	1.863750
-132.309006	-44.774002	1015.833008	-4.576250	20.628124	0.778750
-107.055000	-3.111000	972.583984	-8.973125	14.997500	3.854375
-125.293999	-16.348000	994.483032	-4.361875	15.439375	4.598125
-126.880005	29.219000	977.098022	14.358750	7.223125	8.203125
-124.806000	64.233002	969.533997	15.168125	-2.651250	7.678125
-118.218002	163.358002	1074.636963	18.519375	-16.716875	15.264375
-132.492004	203.251999	1105.320068	-5.967500	-0.546875	11.593750
-126.819000	272.609009	1063.962036	-14.393750	11.169375	5.088125
-119.681999	312.929993	1055.666016	-14.927500	3.570000	11.011875
-118.828003	240.949997	1036.755981	-13.225625	-1.089375	10.185000
-111.203003	214.171005	980.148010	-7.498750	6.737500	8.741250
-122.854004	169.641006	987.101990	-4.068750	-4.313750	5.862500
-57.096001	98.392998	1021.872009	-2.340625	-29.448126	6.282500
-99.002998	28.304001	1051.518066	0.573125	-23.375626	9.638125
-68.747002	25.986000	1053.409058	5.600000	13.715625	-16.537500
-118.584000	4.636000	1020.713013	13.238750	7.472500	-16.480625
-116.998001	6.405000	957.639038	12.600000	5.162500	-26.079374
-101.198997	-33.489002	943.548035	11.628750	6.702500	-8.741250
-75.517998	-26.230000	958.005005	5.967500	1.058750	-0.284375
-32.695999	-227.529999	974.048035	18.939375	11.633125	38.924374
-279.929016	-153.841995	1021.140015	15.443750	2.970625	7.949375
-155.733002	-58.621002	1071.343018	-1.356250	-19.451250	-7.564375
-148.412994	-200.385010	1092.754028	-28.437500	-10.745000	-21.266874
-97.966003	-200.385010	1051.884033	-28.573126	12.180000	-30.108749
-77.653000	-261.994995	995.885986	-18.129999	-0.100625	-33.722500
-68.320000	-259.860016	1011.257996	-6.720000	-3.644375	-27.050625
-86.010002	-160.613007	986.980042	-1.916250	1.487500	-17.679375
-71.187004	-101.808998	981.673035	-0.052500	-1.938125	-6.273750
-52.338001	4.636000	958.187988	-0.223125	-7.096250	13.413750
-82.228004	18.483000	966.484009	6.111875	-6.816250	36.036877
-94.611000	2.135000	979.111023	6.496875	-6.798750	32.160625
-85.400002	40.564999	1018.090027	8.111250	-9.760625	19.136250
-75.152000	53.253002	1039.440063	0.735000	-11.060000	6.496875
-60.938999	46.909000	1059.875000	-4.379375	-2.795625	4.900000
-79.422005	45.018002	1037.915039	-1.688750	3.482500	2.769375
-76.555000	28.243000	1027.789062	4.812500	1.960000	1.868125
-68.014999	6.161000	1029.924072	7.345625	3.211250	2.261875
-55.693001	1.769000	1010.160034	0.315000	4.239375	-0.568750
-68.381004	-10.980000	1029.680054	-2.200625	5.254375	-1.990625
-77.958000	-10.919000	1025.654053	-0.096250	2.730000	-5.788125
-87.108002	-8.906000	1020.591003	-4.641875	2.856875	-8.789375
-85.888000	-14.945000	1023.397034	-6.006875	6.221250	-8.627500
-89.364998	-6.466000	1019.371033	-7.240625	5.232500	-7.144375
-73.321999	-17.873001	1010.953003	-5.656875	1.649375	-4.593750
-87.351997	-33.000999	1016.320984	-2.261875	1.553125	-3.666250
-86.863998	-39.833000	1011.075012	0.345625	2.590000	-1.903125
-74.724998	-21.350000	1014.186035	2.450000	0.367500	-1.312500
-76.799004	-29.463001	1012.294983	2.108750	1.242500	-0.083125
-86.925003	-27.816000	1011.807007	3.171875	1.658125	1.010625
-84.790001	-24.644001	1003.510986	1.872500	2.205000	1.216250
-78.812004	-29.219000	1004.914001	-0.455000	-0.455000	-0.240625
-76.189003	-29.768000	994.056030	-0.446250	0.875000	-0.717500
-84.790001	-16.714001	996.617981	4.283125	-5.385625	-1.163750
-79.422005	8.479000	1012.234009	1.767500	-3.736250	-3.154375
-78.812004	40.931000	1026.081055	-0.205625	-2.695000	-4.755625
-72.895004	108.458000	1024.739014	2.498125	3.771250	-6.435625
-80.336998	176.046005	1029.984985	12.810000	9.030000	-3.443125
-65.758003	196.725006	966.484009	23.174376	8.505000	1.592500
-88.571999	182.572998	1021.140015	29.903126	-2.870000	-0.988750
-74.298004	184.464005	1004.487000	23.940001	3.053750	-5.022500
-120.719002	253.638000	1044.930054	14.525000	-5.538750	-9.480625
-93.635002	207.583008	1037.000000	1.190000	-13.475000	-7.752500
-54.107002	137.677002	1043.709961	-8.225000	-5.031250	-13.426875
-57.767002	70.393997	1007.293030	-20.177500	-9.953125	-22.881250
-39.528000	-62.890999	976.427002	-12.591250	5.801250	-20.943125
-85.948997	-162.992004	964.776001	4.663750	16.441250	-18.213125
-102.906998	-245.281006	1024.190063	9.826250	3.959375	-18.156250
-79.543999	-292.251007	1096.536011	-5.188750	-16.948750	-17.040625
-81.618004	-324.214996	1090.557983	-9.620625	-12.228125	-8.929375
-82.594002	-318.175995	1134.416992	-0.315000	-1.058750	0.354375
-84.545998	-265.166992	1038.281006	12.267500	10.368750	3.701250
-68.747002	-195.199997	1001.559021	8.605625	2.406250	-5.363750
-21.716000	-181.231003	985.577026	-15.776250	-0.367500	-2.629375
-43.920002	-156.770004	983.929993	-22.706249	8.076250	7.380625
-44.469002	-119.559998	978.867004	-25.287500	15.995000	13.483750
-97.722000	-92.292999	914.450989	-13.138125	7.100625	16.664375
-44.713001	-24.644001	981.551025	-4.423125	-0.249375	23.660000
-72.101997	-8.113000	959.773987	-3.513125	1.741250	33.665627
-74.724998	-20.923000	1033.523071	-11.230625	-13.842500	28.455000
-8.906000	25.559000	987.101990	-13.698125	-4.790625	15.303750
-29.829000	57.278999	1017.053040	-7.472500	-15.299375	5.145000
-17.446001	197.029999	1019.371033	-2.961875	-14.656250	4.431875
-71.796997	259.615997	1034.437988	-3.491250	-1.960000	14.931875
-83.387001	264.312988	1084.519043	-20.011250	-5.788125	19.718124
-85.888000	149.876999	1027.728027	-21.153126	4.480000	15.798125
-50.569000	100.833000	1048.406982	-6.562500	-2.366875	5.718125
-71.675003	124.500999	1090.130981	4.480000	-7.306250	3.451875
-44.225002	152.012009	1070.367065	12.481875	-4.151875	7.459375
-39.894001	132.858002	1030.107056	1.579375	6.593125	12.267500
-50.630001	58.316002	1000.278015	-3.141250	13.243125	12.131875
-73.200005	-10.065001	1006.988037	-3.110625	0.682500	3.281250
-53.131001	-57.645000	996.496033	-8.439375	-0.380625	-10.246250
-62.952000	-93.208000	994.178040	-2.336250	-1.176875	-17.215626
-35.319000	-84.180000	1006.682983	4.440625	0.704375	-24.141251
-29.707001	-116.327003	1031.571045	0.083125	2.961875	-21.988750
-40.748001	-121.695000	993.629028	-3.115000	7.599375	-17.946251
-49.227001	-151.462997	1018.090027	-0.962500	2.480625	-11.156250
-61.122002	-162.748001	1017.846008	-2.051875	5.175625	-13.724375
-49.776001	-146.460999	1012.294983	-1.251250	3.185000	-9.751875
-70.150002	-125.111000	1015.283997	-2.082500	2.852500	-5.845000
-55.205002	-97.234001	1004.791992	-1.771875	2.559375	-2.358125
-83.692001	-104.005005	1020.346985	-0.275625	2.432500	0.411250
-66.978004	-84.850998	1002.962036	1.758750	3.574375	-3.850000
-61.061001	-76.677002	1013.088013	0.148750	1.745625	-2.856875
-82.959999	-78.080002	1007.231995	-2.808750	2.546250	-1.671250
-72.101997	-85.034004	1008.879028	-3.521875	4.020625	1.968750
-87.961998	-95.160004	1013.088013	-1.596875	1.281875	3.333750
-87.596001	-93.208000	1014.674011	1.181250	2.231250	2.778125
-83.570000	-78.995003	1008.940002	1.596875	2.305625	2.056250
-74.724998	-77.470001	1006.439026	1.268750	-0.586250	3.062500
-79.117004	-73.688004	1011.197021	1.561875	2.047500	1.868125
-72.041000	-60.756001	1012.112000	1.124375	1.330000	2.633750
-84.485001	-61.487999	1007.231995	2.218125	0.345625	2.423750
-80.825005	-55.875999	1023.640991	1.636250	-0.345625	2.082500
-84.973000	-51.850002	1021.079041	2.292500	0.520625	2.113125
-86.863998	-56.424999	1023.702026	2.905000	0.350000	1.006250
-87.961998	-57.035000	1016.138000	2.913750	0.686875	-0.564375
-85.155998	-51.362000	1010.770020	2.016875	1.649375	-2.135000
-83.752998	-46.726002	1016.747986	1.395625	1.680000	-1.312500
-84.302002	-53.985001	1012.721985	1.750000	3.259375	-1.561875
-89.669998	-64.111000	1017.114014	2.401875	0.726250	-1.758750
-85.522003	-110.776001	1019.919983	4.252500	1.636250	-1.443750
-83.204002	-174.582001	1036.084961	3.220000	-0.490000	-3.500000
-81.313004	-232.410004	1043.709961	0.367500	1.631875	-8.216250
-89.426003	-232.776001	974.780029	-0.984375	4.003125	-11.694375
-59.535999	-208.070999	961.665039	2.590000	1.120000	-6.991250
-95.221001	-197.395996	995.398010	1.408750	-3.587500	-6.755000
-61.487999	-162.869995	990.822998	-4.895625	3.981250	-10.801875
-90.402000	-174.094009	996.617981	-9.310000	10.163125	-10.968125
-57.401001	-114.497002	988.627014	-8.631875	14.546875	-10.294375
-65.209000	-110.105003	940.010010	-5.324375	6.046250	-1.806875
-133.895004	-98.637001	975.817017	-1.601250	7.761250	-3.040625
-105.712997	-35.501999	970.997986	1.697500	-1.211875	-4.589375
-71.553001	4.941000	991.677002	8.207500	-10.535000	-7.660625
-114.497002	90.036003	1024.312012	10.850000	1.522500	-9.642500
-124.013000	180.804001	1029.984985	6.615000	-4.370625	0.310625
-163.479996	211.914001	1103.001953	2.555000	-9.121875	16.992500
-132.796997	216.671997	1090.497070	-8.439375	3.565625	19.954374
-179.706009	272.487000	1061.644043	-1.575000	-16.209375	20.203751
-107.542999	309.330994	1079.699951	-1.942500	-4.939375	13.794375
-168.542999	332.938019	1010.465027	4.165000	4.029375	13.243125
-130.296005	351.908997	1020.103027	10.981250	-15.750000	17.460625
-45.688999	314.515991	1003.572021	10.543750	-15.255625	23.651251
-52.338001	269.619995	982.770996	16.616249	15.080625	21.892500
-54.778000	190.930008	1060.667969	17.661875	18.777500	10.215625
-46.237999	73.809998	1014.918030	9.121875	15.868125	10.696875
-101.382004	0.244000	1060.057983	-14.721875	5.691875	-3.128125
-54.473000	-171.959000	974.169983	-28.126875	23.336250	-36.303749
-154.634995	-236.680008	933.910034	-13.693750	17.635626	-51.974998
-45.750000	-259.615997	958.859009	4.208750	0.603750	-30.944374
-108.335999	-357.154999	1041.818970	3.867500	-1.036875	-2.016875
-164.395004	-321.165009	1051.884033	7.428750	18.764376	19.477501
-199.225998	-343.490997	925.674988	9.996875	-2.051875	-0.393750
-157.380005	-292.190002	1019.737000	13.829375	-10.885000	-9.056250
-123.830002	-258.091003	1052.005981	3.745000	-15.251250	-14.590625
-91.134003	-189.160995	1047.492065	2.804375	6.755000	-3.692500
-110.227005	-126.026001	1020.895996	2.550625	5.324375	1.583750
-177.449005	-56.119999	960.627991	12.775000	39.204376	8.098125
-192.455002	22.509001	968.619019	19.613125	28.315001	2.108750
-149.389008	26.962000	997.960022	3.587500	-6.930000	-4.033750
-190.320007	46.421001	1032.119995	-3.850000	18.431875	3.390625
-151.341003	3.233000	1035.841064	-13.413750	-47.989376	2.244375
-143.289001	-30.743999	1056.154053	-10.683750	-19.075001	2.782500
-124.135002	-13.420000	1026.081055	-11.541250	-8.356250	-4.305000
-120.474998	9.333000	982.832031	-6.435625	0.157500	-7.686875
-127.673004	40.687000	968.314026	-3.066875	-9.865625	-5.271875
-144.936005	43.310001	1012.783020	-0.783125	-6.895000	-6.107500
-126.819000	30.988001	1017.723999	-2.104375	-3.508750	-5.311250
-120.048004	14.091001	1019.981018	-6.623750	-3.867500	-3.128125
-95.648003	-1.464000	1022.054993	-3.246250	-5.131875	3.101875
-103.821999	-14.884000	1015.893982	-0.647500	-2.340625	9.423750
-93.695999	-18.788000	1001.010010	1.837500	-5.713750	9.668750
-91.987999	-26.596001	1010.343018	3.675000	-6.466250	7.612500
-95.038002	-24.888000	1019.432007	3.189375	-5.022500	6.811875
-86.498001	-24.400000	996.252014	0.704375	4.663750	2.572500
-89.426003	-22.814001	1004.609009	-0.052500	-1.785000	-0.840000
-85.278000	-22.204000	1004.791992	-0.774375	-1.461250	-1.680000
-78.140999	-11.468000	1017.174988	-0.721875	-2.467500	-1.951250
-81.984001	-13.420000	1025.166016	-1.841875	-0.634375	0.310625
-91.561005	-9.699000	1018.760986	1.137500	1.640625	0.682500
-90.524002	-11.468000	1026.141968	2.559375	1.093750	0.048125
-87.351997	-7.442000	1019.005005	0.625625	2.327500	-0.240625
-72.346001	-14.396000	1011.380005	2.646875	2.130625	0.761250
-91.012001	-12.566000	1009.306030	3.381875	2.887500	0.778750
-86.498001	-3.538000	1011.867981	1.955625	0.253750	-0.805000
-85.705002	-13.725000	1004.669983	3.351250	2.012500	-0.192500
-77.714005	-11.407001	1011.257996	3.255000	0.945000	-1.211875
-86.010002	-18.726999	1014.002991	3.049375	1.032500	-0.192500
-84.850998	-70.028000	1014.125000	3.841250	0.415625	1.496250
-95.831001	-117.547005	1045.234985	1.605625	0.695625	5.910625
-98.637001	-196.725006	1028.093994	-7.507500	-2.677500	11.353125
-119.559998	-257.359009	992.470032	-5.516875	-0.866250	4.585000
-113.887001	-218.319000	994.421997	4.081875	-6.571250	-5.162500
-80.215004	-158.783005	999.424011	9.738750	-8.951250	-9.804375
-4.392000	-142.496002	992.286987	-1.290625	-24.469376	0.105000
-64.476997	-87.351997	1001.254028	5.420625	3.329375	24.071251
-101.687004	-104.919998	1022.543030	-10.635625	9.296875	14.835625
-89.974998	-80.886002	999.546021	-20.037500	0.752500	-1.058750
-35.990002	-64.598999	987.833984	-21.503124	4.151875	-24.381874
-0.976000	-21.410999	989.176025	-17.845625	-4.401250	-21.231874
-20.069000	20.679001	965.385986	4.204375	-7.752500	-5.477500
-68.685997	72.590004	1011.197021	16.546249	1.303750	1.745625
-88.206001	114.070000	1012.173035	9.292500	4.077500	-4.160625
-54.290001	169.824005	956.723999	9.148125	-3.080000	-3.198125
-66.673004	211.548004	1058.838013	8.855000	6.593125	4.913125
-71.918999	277.855011	1107.394043	9.817500	-8.605625	1.067500
-61.000000	363.011017	1083.359985	22.820000	-10.600625	18.900000
-90.341003	374.235016	1100.562012	5.009375	5.061875	19.429375
-75.274002	320.554993	1045.296021	0.008750	17.412500	14.122500
-108.275002	283.283997	1015.955017	-6.746250	19.145000	4.042500
-102.968002	215.635010	990.700989	-16.095625	14.266875	-10.653125
-47.214001	174.826004	1001.437012	-13.803125	6.781250	-15.719375
-96.563004	167.262009	1031.327026	-6.234375	10.189375	-11.694375
-47.885002	102.053001	1001.437012	-3.206875	8.408750	-15.229375
-58.194000	88.206001	1016.809021	7.498750	6.370000	-1.211875
-68.502998	86.253998	1008.757019	4.869375	-4.685625	8.268750
-0.122000	-48.250999	999.057983	7.953750	-2.231250	20.654375
-111.874001	-95.831001	1010.160034	2.765000	9.817500	22.920626
-131.882004	-201.300003	981.184998	1.089375	-3.561250	6.636875
-126.453003	-200.811996	1031.327026	-2.782500	-6.790000	3.101875
-137.128006	-250.039001	1000.827026	-15.032500	0.205625	-9.983750
-94.428001	-229.725998	1040.233032	-10.841250	3.132500	-11.834375
-148.352005	-199.653000	1064.693970	-7.319375	1.098125	-14.529375
-111.569000	-142.679001	1012.112000	-7.415625	8.334375	-22.491875
-98.942001	-102.358002	994.117004	-10.018750	8.522500	-19.814375
-101.565002	-82.594002	983.564026	-7.253750	4.615625	-11.195625
-87.718002	-61.487999	982.466003	-1.575000	4.650625	-1.080625
-103.639000	-57.157001	984.540039	0.826875	-4.287500	0.669375
-108.275002	-42.517002	1038.708008	-1.010625	-9.318750	-2.765000
-99.369003	-34.770000	1020.286011	-4.055625	-7.056875	-6.098750
-83.692001	-27.205999	1012.478027	-1.920625	-3.596250	-4.602500
-93.878998	-20.862000	1008.452026	-0.778750	0.135625	-0.446250
-69.662003	-14.823000	1011.684998	1.815625	2.310000	4.283125
-86.620003	-24.644001	1009.733032	2.231250	2.800000	7.380625
-90.158005	-23.485001	1019.005005	3.657500	0.455000	6.068125
-89.974998	-13.054000	992.775024	2.065000	3.758125	2.253125
-92.903000	-24.705000	1002.046997	1.093750	-0.577500	0.315000
-98.209999	-40.015999	1011.441040	-1.251250	-1.281875	-1.863750
-89.181999	-45.139999	1012.234009	-1.518125	0.131250	-1.391250
-97.112000	-49.043999	1006.866028	0.183750	-0.984375	0.888125
-103.028999	-46.909000	1011.197021	1.995000	0.341250	2.795625
-109.983002	-55.021999	1011.867981	5.096875	0.170625	1.789375
-108.763000	-69.662003	1030.656006	2.406250	1.693125	0.756875
-119.438004	-127.429001	1052.188965	-1.553125	-1.780625	-1.443750
-92.415001	-190.807999	1053.165039	-7.109375	2.401875	-1.264375
-95.221001	-267.851013	1002.778992	-12.573750	-3.666250	3.307500
-62.646999	-296.277008	975.085022	-3.285625	-0.109375	3.998750
-79.056000	-270.412994	961.726013	9.358125	-6.466250	4.125625
-47.763000	-221.430008	963.799988	11.296250	-5.538750	0.297500
-53.008999	-143.899002	968.314026	8.220625	-3.246250	11.121250
-32.208000	-101.198997	964.166016	9.156875	-5.420625	16.283751
-71.003998	-41.723999	1003.510986	2.900625	-7.883750	19.026875
-66.368004	-17.141001	1019.187988	-3.132500	0.148750	18.729376
-68.930000	31.659000	1008.085999	-8.141875	9.380000	6.059375
-54.961002	94.855003	1019.676025	-5.184375	-1.426250	-0.498750
-18.056000	147.436996	1039.867065	-3.180625	7.402500	-1.347500
-63.013000	202.641998	1005.768005	-3.403750	7.406875	13.155625
-114.009003	197.701004	1015.893982	-1.671250	5.368125	16.764999
-134.809998	292.006989	1041.758057	5.569375	-4.851875	11.335625
-115.412003	376.919006	1087.203003	3.854375	6.247500	14.971250
-118.461998	365.634003	1086.531982	-0.306250	-5.232500	11.501875
-88.084000	330.437012	1044.930054	-5.359375	-0.525000	9.240000
-108.397003	298.533997	985.150024	-2.769375	17.430000	2.979375
-90.767998	231.007004	975.145996	1.806875	3.556875	-8.439375
-66.246002	194.589996	997.716003	13.256250	-8.981875	-15.785000
-7.076000	135.602997	1031.998047	14.883750	18.895624	-14.358750
-32.208000	83.264999	1010.770020	14.035000	5.324375	-7.446250
-62.341999	36.783001	1031.571045	15.386875	1.260000	-4.790625
-52.521000	-65.331001	1037.000000	16.786875	3.609375	-5.026875
-110.836998	-168.542999	1057.801025	10.994375	-4.786250	-2.940000
-152.865997	-242.109009	1026.508057	-6.706875	-5.245625	-21.507500
-129.137009	-268.826996	972.096008	-10.158750	1.155000	-34.496876
-89.243004	-237.533997	1041.758057	-6.094375	-5.306875	-38.902500
-72.773003	-208.253998	1039.073975	-8.767500	-3.749375	-20.807501
-75.457001	-180.376999	1055.604980	-10.486875	-1.815625	-9.450000
-89.731003	-151.828995	1015.223022	-10.626875	5.341875	-4.646250
-109.068001	-116.083000	976.182983	-12.123125	1.216250	-2.323125
-110.715004	-78.385002	964.531982	-9.218125	-0.402500	-2.305625
-102.358002	-17.812000	980.941040	-7.188125	-2.887500	-1.299375
-99.917999	1.586000	988.992981	-9.121875	-6.203750	3.456250
-93.330002	4.270000	1020.286011	-7.892500	-6.698125	8.636250
-89.792000	-5.612000	1012.234009	-3.128125	-2.100000	10.298750
-72.773003	-17.080000	1038.769043	-0.078750	-4.926250	8.290625
-75.639999	-17.934000	1026.935059	0.883750	-0.896875	7.875000
-72.346001	-26.413000	1022.054993	0.013125	1.308125	4.243750
-77.225998	-34.160000	1023.885010	-2.887500	-1.583750	2.428125
-86.010002	-35.319000	1007.598022	-3.255000	2.301250	3.622500
-86.253998	-44.652000	1006.682983	0.140000	-2.266250	3.565625
-87.047005	-30.500000	995.153992	5.394375	0.481250	0.980000
-80.093002	-15.250000	1019.614990	5.070625	-2.568125	3.167500
-71.370003	-13.481000	1008.147034	4.173750	-1.531250	5.114375
-75.822998	-8.540000	1020.346985	1.798125	-0.735000	6.365625
-66.306999	2.806000	1021.262024	-1.225000	-3.981250	5.818750
-73.993004	-9.516000	1023.885010	-4.375000	-1.601250	5.320000
-74.481003	-26.474001	1020.530029	-5.359375	0.236250	0.411250
-65.758003	-24.278000	1024.921997	0.625625	-0.056875	-1.645000
-77.409004	-29.524000	1014.674011	1.356250	1.071875	-1.872500
-63.013000	-17.323999	1011.441040	-0.266875	0.446250	-0.406875
-70.577003	0.427000	1014.734985	0.275625	3.736250	0.074375
-55.937000	12.932000	1016.687012	0.017500	2.826250	2.222500
-65.819000	37.088001	1016.809021	0.402500	4.764375	2.397500
-71.125999	50.691002	1035.718994	3.132500	4.698750	4.996250
-98.576004	105.591003	1022.665039	11.646250	7.161875	0.214375
-81.618004	121.207001	1019.859009	9.590000	6.046250	-7.406875
-67.649002	88.023003	1045.479004	3.272500	4.318125	-13.317500
-80.581001	48.129002	1020.957031	1.658125	5.836250	-18.423124
246.013000	-341.600006	1202.005005	15.176875	-4.414375	-12.070625
-229.298996	127.124001	1323.273071	20.426874	22.124374	-4.340000
-48.556000	-71.370003	924.272034	-6.068125	-79.966248	-23.861250
-87.291000	-12.871000	1055.177979	-15.391250	0.866250	-21.914375
-57.767002	-24.095001	997.228027	-21.118126	13.689375	-27.969376
-79.726997	-27.816000	974.902039	-11.768750	0.091875	-29.500626
-62.220001	-35.136002	1034.316040	-2.021250	-14.538125	-28.433125
-71.431000	-76.432999	1003.083984	4.423125	2.043125	-21.319374
-71.858002	-111.446999	1009.367004	7.000000	-6.033125	-16.913750
-75.762001	-166.042007	1022.299011	2.428125	-11.007500	-15.369375
-75.396004	-164.395004	1017.541016	-0.910000	-7.179375	-13.448750
-51.362000	-169.153000	1026.751953	-3.823750	-5.381250	-8.868125
-48.190002	-223.686996	1038.890991	-3.206875	1.172500	-2.056250
-49.166000	-249.734009	1004.791992	-2.769375	5.726875	5.254375
-44.957001	-261.873016	977.220032	5.792500	4.011875	9.686250
-75.884003	-247.843002	986.796997	-8.146250	-2.778125	16.988125
-54.900002	-259.615997	962.031006	-15.076250	0.748125	13.619375
34.831001	-241.194000	998.265015	-22.041250	-6.461875	30.467501
-56.486000	-233.264008	969.351013	-5.276250	-0.822500	36.793751
-12.810000	-232.654007	963.251038	-13.282500	-13.899375	41.750626
-86.986000	-171.104996	984.174011	-2.979375	-15.351875	26.866875
16.531000	-57.706001	979.111023	15.032500	-4.541250	20.256250
-46.237999	38.125000	1007.415039	22.408751	0.161875	12.088125
-23.607000	230.091995	1003.937988	21.070000	-13.466250	-10.618125
-36.478001	328.972992	1047.552979	16.135000	2.800000	-15.596875
-31.110001	278.769989	1078.114014	-13.129375	-10.801875	1.540000
2.867000	169.091995	1117.520020	-25.445000	-9.835000	6.807500
36.234001	119.804001	1058.349976	-7.875000	1.789375	13.050625
0.976000	74.114998	1040.904053	9.826250	8.741250	20.737499
-20.374001	30.866001	1032.302979	12.674375	0.555625	23.861250
-26.901001	24.156000	1009.916016	11.843125	2.135000	18.217501
-31.659000	27.694000	1020.713013	8.960000	-1.067500	11.978750
-14.152000	31.842001	1009.976990	4.510625	-5.223750	7.109375
-18.177999	27.694000	1006.500000	6.986875	0.144375	3.587500
2.501000	23.912001	1020.895996	8.098125	-8.155000	0.415625
3.172000	6.832000	1019.249023	3.180625	-4.830000	-1.946875
7.503000	2.013000	1009.733032	1.623125	-5.022500	-3.097500
12.322001	7.930000	1030.167969	-2.113125	-13.413750	-1.023750
20.313000	-3.050000	1010.281982	-0.997500	-9.485000	2.485000
9.699000	-9.150001	1004.364990	5.219375	1.623125	0.826875
10.858000	-19.276001	1031.083008	2.865625	-1.806875	-1.561875
21.960001	-14.823000	1036.511963	-2.559375	2.489375	-5.184375
18.300001	-9.455000	1014.552002	-6.120625	4.178125	-4.917500
13.969000	-22.570000	997.655029	-8.264375	3.360000	-5.311250
13.969000	-24.034000	1019.309998	-5.538750	0.402500	-1.780625
14.213000	-33.916000	1026.264038	-4.326875	-1.522500	-1.041250
18.056000	-14.091001	1021.262024	-5.368125	0.826875	0.336875
4.941000	-3.050000	1005.036011	-2.375625	1.343125	1.225000
12.688000	2.379000	1037.122070	1.500625	1.308125	1.863750
16.714001	6.527000	1009.184021	1.754375	4.628750	0.074375
8.418000	42.517002	1005.890015	4.471250	3.911250	-3.281250
21.533001	100.955002	1008.757019	1.872500	-0.700000	-4.165000
17.080000	126.941002	1006.682983	2.830625	2.953125	-4.256875
34.098999	167.262009	1044.442017	6.431250	-6.575625	3.154375
18.422001	151.158005	1037.061035	9.047500	-7.166250	4.628750
-9.638000	200.751007	1003.632996	17.377501	4.886875	-5.473125
85.948997	180.072006	1016.931030	31.110624	1.465625	-8.128750
-24.766001	217.526001	1065.547974	14.249375	2.082500	-12.735625
74.603004	105.712997	990.884033	-2.069375	-4.291875	-22.325624
18.910000	54.229000	1012.721985	-14.910000	-1.671250	-24.311874
13.420000	-17.385000	1002.413025	-10.001250	14.218750	-32.182499
13.786000	-38.307999	1009.733032	-11.366250	20.475000	-31.574375
51.728001	-74.542000	1044.503052	-13.168750	5.018125	-22.999374
13.725000	-165.188004	1082.994019	-24.972500	17.605000	-9.178750
-8.784000	-224.785004	1078.479980	-22.360624	6.685000	-6.475000
-42.272999	-293.044006	994.239014	-0.021875	7.463750	-4.926250
-43.980999	-319.274017	1002.473999	9.782500	-1.015000	-6.090000
-43.066002	-337.757019	992.286987	0.761250	-13.050625	2.905000
-64.660004	-307.562012	971.119995	-8.483125	-2.266250	3.399375
-59.170002	-282.368988	958.859009	-23.450001	3.491250	4.340000
-67.282997	-240.523010	947.390991	-23.091249	-0.231875	-1.290625
-19.642000	-195.932007	993.690002	-14.608125	-4.843125	0.201250
-21.716000	-98.576004	1044.442017	-13.055000	-10.018750	15.981875
-2.257000	-115.107002	1025.898071	-19.022499	-7.074375	19.809999
-7.442000	-104.066002	1040.110962	-24.543751	6.571250	18.059999
9.577000	-80.215004	1000.888000	-25.178125	6.365625	14.424375
33.733002	-61.915001	971.851990	-16.038750	7.892500	15.071875
-10.126000	-18.605000	970.449036	-3.705625	-13.540625	7.183750
43.310001	40.687000	978.257019	9.826250	-5.215000	-4.668125
-55.144001	124.195999	1040.904053	-0.148750	8.911875	3.889375
-22.814001	93.513000	1016.015991	8.141875	16.843750	-5.285000
-2.440000	79.910004	1075.247070	11.125625	-7.284375	5.105625
-30.866001	-13.420000	1097.938965	-3.346875	-3.766875	9.310000
-27.632999	-43.431999	1030.534058	7.818125	1.701875	8.487500
-20.801001	-51.545002	1001.742004	25.685625	-4.064375	8.824375
-18.300001	-54.167999	1029.375000	34.413750	-6.378750	8.929375
-21.960001	-44.834999	1032.242065	24.635626	-3.696875	6.269375
14.396000	-63.684002	1002.840027	15.216250	-1.054375	1.907500
-2.196000	-58.743000	1029.130981	10.233125	-2.183125	-0.533750
-12.200000	-58.560001	1016.138000	-3.329375	-2.336250	-7.713125
-8.052000	-39.833000	993.934021	-7.704375	1.925000	-12.866875
6.344000	-43.554001	1005.096985	-8.023750	-2.279375	-8.386875
-12.688000	-39.833000	1030.656006	-7.931875	-3.224375	-5.136250
-0.671000	-34.587002	1022.726013	-3.171875	1.868125	-0.420000
-13.542000	-51.545002	1021.384033	-2.222500	-2.463125	0.065625
9.821000	-51.728001	1008.208008	0.791875	2.856875	-0.363125
-0.427000	-55.388000	1018.212036	-2.865625	0.144375	-0.043750
1.586000	-53.070000	1011.014038	-1.925000	1.553125	-0.284375
1.403000	-60.268002	1012.234009	-2.673125	3.403750	0.538125
-5.307000	-60.817001	1004.242981	-1.264375	1.395625	-1.855000
-8.601000	-61.976002	1020.408020	2.016875	1.421875	-1.732500
0.854000	-62.220001	1027.789062	-0.455000	-0.835625	1.837500
-3.416000	-78.445999	1037.549072	-1.666875	0.945000	3.504375
-24.948999	-129.197998	1037.792969	-5.223750	-0.826875	4.296250
-3.904000	-179.279007	1031.448975	-6.028750	5.298125	-0.070000
-3.782000	-187.209000	1002.840027	-4.265625	6.225625	0.402500
23.180000	-232.776001	995.093018	4.208750	-2.633750	7.297500
9.211000	-228.628006	984.479004	18.169374	0.030625	16.821875
11.590000	-200.507004	994.848999	19.267500	-8.474375	10.810625
-16.653000	-156.526001	1005.402039	15.430625	-0.835625	-0.700000
-8.052000	-48.556000	1021.750000	9.747500	7.262500	-13.702500
-14.701000	-27.816000	999.911987	-5.254375	2.813125	-14.083125
-61.854000	-6.649000	988.322021	-14.669375	5.381250	-6.531875
-28.059999	7.198000	990.213013	-9.397500	18.230625	-4.418750
-22.814001	12.688000	1008.817993	-1.684375	7.455000	6.308750
-22.814001	5.307000	1006.134033	3.666250	7.949375	5.210625
-31.537001	12.871000	967.704041	0.026250	13.925625	7.336875
-51.240002	69.600998	1043.770996	1.246875	7.271250	1.964375
-68.625000	128.283005	1072.624023	15.653750	-2.598750	-1.981875
-34.221001	201.788010	1051.334961	12.315625	9.646875	8.601250
-74.359001	233.813004	1082.322998	6.260625	-15.286250	10.058125
-29.402000	265.106018	1039.317993	11.825625	-14.148750	-0.275625
-47.031002	255.102005	1030.961060	0.363125	8.977500	-4.681250
-87.230003	240.218002	975.450989	-7.647500	7.910000	-3.215625
-70.210999	235.216003	950.562988	-2.555000	-0.603750	-5.232500
-13.176001	183.792999	950.746033	-0.411250	-9.874375	-9.625000
10.736000	142.434998	986.187012	-1.583750	-26.661249	-4.068750
25.498001	54.534000	1010.160034	-5.543125	-10.425625	0.350000
23.485001	22.509001	987.346008	-9.069375	14.665000	3.871875
-11.773000	-91.500000	1001.559021	0.800625	-2.253125	1.277500
-19.642000	-146.460999	1025.958984	6.864375	-2.436875	-1.019375
3.904000	-221.369003	1051.884033	-4.383750	-0.179375	-10.206875
7.686000	-195.566010	1051.457031	1.780625	12.853750	-6.641250
-5.307000	-201.666000	1102.818970	1.106875	-2.069375	-4.576250
-11.956000	-193.431000	1044.442017	-4.401250	9.126250	-7.367500
-27.267000	-174.582001	1008.085999	-6.921250	10.828125	-10.062500
-17.629000	-143.837997	989.968994	-12.096875	4.029375	-14.122500
-37.758999	-112.544998	981.246033	-13.413750	5.696250	-11.213125
-32.208000	-93.147003	981.429016	-13.234375	0.940625	-9.353750
-27.205999	-66.489998	1005.829041	-13.549375	-5.508125	0.481250
-31.171000	-66.794998	1006.072998	-7.765625	-7.345625	5.223750
-20.984001	-69.112999	995.642029	0.577500	-11.685625	7.603750
-15.372000	-71.308998	1001.986023	8.780625	-6.317500	2.266250
5.124000	-50.020000	1017.053040	7.420000	-8.675625	-0.595000
4.392000	-46.482002	1033.828003	-1.281875	-6.855625	-5.254375
11.773000	-45.323002	1040.477051	-4.449375	2.266250	-3.430000
-4.392000	-56.852001	1020.225037	-8.404375	1.281875	1.421875
-13.359000	-67.344002	1007.415039	-2.804375	0.665000	6.076875
-3.233000	-61.671001	1016.869995	4.121250	3.014375	5.092500
9.638000	-55.815002	1015.955017	9.060625	0.717500	6.212500
-2.562000	-38.368999	1004.487000	8.448125	1.474375	3.863125
1.098000	-41.114002	1017.968018	5.061875	-0.997500	3.753750
7.808000	-39.223000	1009.549988	1.666875	-1.588125	0.293125
6.344000	-35.014000	1015.283997	-1.067500	-0.415625	2.423750
9.516000	-29.829000	1006.866028	-0.048125	2.380000	4.510625
-2.074000	-36.417000	1005.158020	2.913750	1.491875	5.849375
-0.610000	-27.511000	1032.058960	3.858750	-4.996250	4.038125
10.126000	-41.358002	1018.028992	-1.693125	-3.915625	3.618125
6.771000	-55.388000	1002.840027	-4.458125	-0.402500	5.512500
11.468000	-54.046001	993.202026	-5.862500	-2.559375	5.648125
-4.758000	-74.603004	1009.367004	-8.273125	-2.891875	3.740625
11.041000	-69.052002	1018.700012	-6.873125	-5.433750	-2.638125
10.492001	-81.251999	1019.614990	-6.986875	-4.838750	-4.051250
11.590000	-49.593002	1016.747986	-5.928125	-1.465625	-3.508750
21.777000	-29.219000	1014.796021	-3.876250	0.201250	0.835625
26.840000	-10.614000	1051.457031	-2.725625	-0.822500	3.513125
19.153999	-33.062000	1042.672974	-5.136250	3.701250	0.013125
18.788000	-40.015999	1016.747986	-10.946250	5.971875	-4.633125
26.108000	-36.783001	1021.018005	-13.947500	4.860625	-7.087500
26.962000	10.492001	1039.562012	-6.746250	5.713750	-8.802500
38.917999	82.167000	1032.973999	10.635625	4.786250	-5.678750
34.282001	30.134001	1050.603027	11.891250	6.125000	3.618125
-4.453000	-52.643002	1054.567993	-1.019375	9.931250	3.530625
-15.677000	-45.628002	1004.304016	1.719375	15.067500	-4.020625
-27.694000	32.695999	1002.351990	24.338125	7.726250	-11.396875
5.551000	129.990997	1031.448975	37.616249	-1.701875	-1.986250
-31.842001	102.723999	1035.291992	38.762501	6.724375	0.783125
-50.020000	101.077003	970.510010	39.086250	-14.971250	-8.010625
-39.528000	79.605003	1033.523071	18.151875	-21.686874	-2.196250
-14.091001	-29.646000	968.863037	-6.300000	-7.196875	-4.646250
-22.509001	-142.740005	1033.583984	-9.835000	18.173750	-15.960000
-13.786000	-199.042999	1007.476013	-8.789375	8.041250	-24.403749
23.912001	-224.479996	1048.041016	-7.122500	-12.516875	-20.601875
33.000999	-272.731018	1042.124023	-10.298750	-5.670000	-13.912500
53.618999	-280.173004	1096.291992	-7.253750	-2.896250	2.909375
-18.726999	-266.386993	999.057983	-0.476875	12.009375	7.218750
-24.034000	-251.503006	978.806030	-1.015000	9.909375	4.213125
-27.145000	-199.958008	952.454041	-22.378124	9.380000	11.331250
-7.137000	-161.406006	988.139038	-27.628124	1.150625	16.104376
-12.688000	-140.056000	960.200989	-19.766251	-13.050625	25.869375
21.228001	-67.709999	913.231018	7.131250	1.736875	32.576248
-45.993999	-105.712997	909.632019	26.171249	1.938125	23.515625
-32.146999	-15.311000	985.699036	6.698125	-11.475625	-10.718750
24.644001	68.076004	1001.864014	-6.326250	-14.288750	-23.834999
-27.572001	135.481003	1058.166992	-18.248125	-4.834375	-14.656250
25.864000	170.190002	1050.664062	-13.549375	-1.680000	-12.438125
3.294000	130.723007	1074.332031	1.811250	9.948750	5.661250
2.867000	129.686005	1132.281982	16.086876	11.108125	-1.828750
7.869000	136.762009	1121.790039	26.298124	8.015000	3.281250
5.002000	121.877998	1063.596069	14.271250	1.767500	17.810625
-11.407001	98.332001	1023.213989	6.899375	2.821875	22.723749
-12.078000	70.089005	985.393982	5.516875	-2.178750	24.075624
-0.854000	46.055000	1019.005005	4.405625	-5.757500	19.941250
5.429000	25.742001	1018.944031	2.616250	-2.537500	9.896250
5.612000	23.424000	1021.322998	-1.448125	2.143750	4.410000
-0.793000	21.960001	1026.935059	-7.560000	0.783125	-1.417500
3.599000	11.834001	998.936035	-9.957500	1.841875	-5.761875
-5.612000	-4.636000	994.239014	-8.561875	-3.259375	-6.825000
-13.908000	9.943000	1001.803040	-4.156250	8.190000	-6.715625
15.006001	-13.786000	1021.445007	1.076250	8.579375	-5.980625
-22.875000	-32.939999	1034.133057	2.060625	3.609375	-2.454375
-28.121000	-9.455000	1032.546997	3.351250	10.263750	1.093750
-37.881001	-9.272000	1032.425049	1.491875	1.417500	2.170000
-27.938000	-14.030000	1025.837036	1.098125	3.180625	1.881250
-19.642000	-32.635002	1012.294983	1.911875	6.046250	2.135000
-33.000999	-69.540001	1024.739014	0.354375	0.428750	-0.542500
-49.959000	-81.008003	1049.932007	0.638750	3.220000	-5.372500
-36.355999	-101.625999	1019.127014	0.236250	5.110000	-8.115625
-39.711002	-71.918999	997.106018	5.796875	10.036250	-8.771875
-37.027000	-56.852001	1013.454041	5.096875	6.295625	2.016875
-51.605999	-92.842003	1012.721985	-4.532500	4.948125	8.264375
-45.932999	-97.966003	972.950012	-9.590000	9.213750	4.738125
-25.375999	-106.689003	979.416016	-9.751875	-3.784375	6.654375
-47.519001	-82.106003	1001.497986	3.552500	3.250625	0.910000
-20.801001	-33.428001	983.625000	13.698125	6.846875	-1.474375
-71.370003	43.675999	973.621033	25.506250	4.130000	-3.360000
-76.006004	99.917999	1026.324951	6.282500	-20.269375	-10.701250
-20.923000	130.845001	1018.882996	-10.968125	3.040625	-10.552500
-66.001999	161.283997	1035.901978	-16.178749	4.585000	0.074375
-53.618999	187.819000	1077.625977	-22.885626	-9.651250	-7.218750
-32.574001	221.369003	1090.680054	-12.241250	5.420625	-3.924375
-74.114998	237.290009	1076.406006	0.105000	5.744375	4.191250
-63.257000	203.617996	1015.893982	1.470000	-4.252500	13.387500
-56.242001	157.867996	1000.460999	5.499375	-0.542500	19.495001
-40.809002	124.562004	978.684021	8.474375	-6.606250	16.476250
-28.182001	70.943001	971.608032	0.765625	-10.412500	5.888750
-42.151001	-21.777000	992.043030	-3.622500	-14.525000	-5.753125
-11.468000	82.837997	1038.342041	14.927500	-21.927500	-25.213125
-19.703001	166.469009	1054.933960	28.144375	-7.809375	-7.126875
-41.785000	114.557999	1057.312988	15.557500	4.160625	0.284375
27.999001	-22.387001	958.249023	1.115625	3.395000	19.022499
-50.569000	-146.643997	1019.919983	-1.220625	7.166250	10.587500
-52.277000	-182.634003	1053.958008	-1.111250	9.148125	-1.295000
-10.553000	-143.167007	996.130005	-3.583125	7.669375	-15.474375
-6.466000	-76.311005	1046.881958	-2.213750	-4.147500	-15.955625
3.294000	-43.920002	1048.162964	-9.878750	-1.610000	-7.608125
-15.494000	-40.931000	990.884033	-22.058750	13.864375	-5.547500
-44.164001	-57.218002	1009.184021	-20.623751	16.415001	2.935625
-52.033001	-78.933998	1024.250977	-15.841875	-4.475625	4.178125
-42.882999	-51.545002	1008.695984	-5.158125	1.404375	0.131250
-30.805000	-36.966000	1017.785034	1.833125	-2.926875	-2.108750
-32.269001	-17.141001	1018.212036	6.094375	-8.115625	-7.157500
-26.962000	-3.538000	995.458984	7.455000	-3.985625	-11.554375
-7.991000	-13.664001	987.285034	0.883750	-0.700000	-10.351250
-28.609001	-5.612000	1005.950989	-8.260000	1.028125	-6.912500
-28.121000	-13.725000	1013.148987	-11.003125	-0.135625	-1.981875
-21.167000	-10.797000	1033.949951	-4.808125	0.253750	4.952500
-29.951000	-16.958000	1007.903015	4.602500	-3.036250	5.525625
-25.681000	-19.825001	1000.888000	9.835000	-4.711875	2.730000
-18.544001	-19.337000	1025.837036	1.316875	-3.307500	-1.723750
-12.444000	-18.361000	1026.264038	-6.282500	0.363125	-1.802500
-21.594000	-29.707001	1021.750000	-9.213750	4.116875	-1.023750
-12.200000	-27.572001	1012.539001	-4.536875	0.669375	-1.413125
-11.712000	-18.849001	1012.416992	-2.279375	0.468125	-0.507500
-14.762000	-15.128000	1015.528015	1.850625	0.958125	0.161875
-10.736000	-20.007999	1020.103027	-1.211875	-0.516250	1.378125
-7.137000	-23.485001	1019.554016	-5.613125	1.080625	-0.074375
-9.638000	-21.228001	1022.238037	-4.116875	-0.695625	1.365000
-12.932000	-27.450001	1019.981018	-1.216250	-0.288750	1.728125
-12.200000	-20.313000	1012.966003	1.159375	-1.850625	3.268125
-11.468000	-18.177999	1008.390991	1.706250	-1.071875	3.368750
4.941000	35.868000	1017.419006	-1.435000	-2.113125	4.803750
6.710000	33.123001	1018.517029	-2.756250	-3.460625	7.223125
28.670000	100.894005	1016.504028	5.608750	2.891875	15.610000
-4.026000	85.643997	1002.230042	14.997500	-0.861875	28.437500
-8.052000	95.770004	1048.956055	19.131874	0.056875	20.221251
-63.867001	59.841000	1032.485962	6.409375	3.788750	15.330000
-36.112000	23.973000	1049.687988	-9.638125	-14.853125	-5.705000
-16.348000	-28.792000	1085.860962	-11.952500	7.581875	-7.323750
-17.995001	-28.304001	1044.869019	-13.046250	7.070000	-13.094375
-26.230000	29.585001	985.699036	-1.885625	12.849375	-11.326875
-3.660000	86.986000	1035.291992	1.120000	-3.202500	-15.334375
-8.540000	114.924004	1056.824951	-6.623750	-3.565625	-15.207500
15.372000	83.814003	995.276001	-4.965625	1.032500	-16.660000
-12.505000	-27.694000	987.346008	-6.864375	5.153750	-2.900625
3.843000	-180.987000	949.221008	-13.181875	-1.321250	-6.536250
-56.852001	-301.462006	995.703003	-6.641250	-10.241875	-5.565000
-35.746002	-294.996002	1001.437012	-0.468125	1.028125	-8.347500
-19.947001	-340.868011	1033.766968	3.788750	3.850000	-3.880625
-51.362000	-330.010010	1011.319031	16.231251	4.760000	2.861250
-42.334000	-300.242004	998.325989	17.543751	8.102500	3.578750
-27.999001	-304.024017	990.700989	5.639375	1.601250	3.395000
-30.316999	-267.729004	984.356995	-5.438125	0.231875	6.588750
-8.418000	-199.714005	959.591003	-4.795000	7.170625	16.441250
-15.799000	-172.569000	958.309998	-15.277500	-0.756875	23.533125
-25.437000	-136.212997	964.837036	-15.518125	0.459375	18.672501
-41.541000	-30.073000	957.151001	-7.166250	1.435000	10.430000
17.080000	38.857002	992.653015	-8.347500	-4.926250	7.555625
-83.387001	37.942001	989.237000	-15.754375	-10.338125	-8.916250
-17.507000	168.115997	1031.571045	-7.275625	-8.085000	-22.268749
4.148000	180.925995	1054.567993	-5.709375	-21.818125	-22.417500
30.866001	203.557007	1097.328979	-2.948750	-10.027500	0.026250
24.461000	132.003998	1110.626953	-2.738750	3.950625	15.308125
65.270004	32.635002	1044.869019	1.649375	-1.356250	10.981250
42.212002	48.312000	1072.135986	19.101250	2.240000	8.225000
20.007999	47.336002	1064.328003	21.634375	0.875000	6.457500
-1.098000	20.740000	1014.674011	14.774375	-4.169375	6.781250
-9.455000	3.721000	1014.064026	14.039375	-3.259375	-3.609375
17.019001	-7.503000	1010.465027	7.949375	3.294375	-9.113125
15.982000	-10.126000	1027.911011	-0.822500	4.405625	-13.545000
22.387001	-17.507000	1022.604004	-1.680000	1.601250	-13.081250
14.884000	-38.430000	1029.130981	-4.296250	3.097500	-8.789375
9.455000	-44.408001	1017.846008	-5.110000	5.368125	-4.606875
1.586000	-78.690002	1018.028992	-3.780000	2.012500	2.253125
-7.259000	-77.653000	1015.893982	-5.328750	5.285000	-2.170000
-10.370000	-74.664001	1021.445007	-6.453125	6.260625	-4.182500
-10.980000	-70.820999	1016.565002	-3.180625	1.041250	-4.908750
4.758000	-66.063004	1004.121033	-0.157500	1.990625	-2.546250
2.379000	-70.089005	1015.893982	-0.673750	2.795625	-1.618750
-3.416000	-49.105000	1002.473999	-0.752500	1.964375	-2.883125
-7.320000	-50.935001	1009.733032	-2.441250	1.461250	-0.091875
2.867000	-46.055000	1013.697998	-2.104375	-0.542500	-0.520625
5.917000	-44.408001	1012.356018	1.325625	0.481250	1.505000
-2.867000	-47.519001	1014.796021	3.176250	-2.191875	0.770000
-1.586000	-32.574001	1005.523987	2.572500	-2.852500	-1.006250
8.601000	-12.688000	1013.210022	-3.031875	-0.931875	-1.653750
0.427000	-32.025002	1011.867981	-8.120000	0.306250	-3.014375
-7.930000	-38.491001	1033.889038	-11.055625	0.752500	-4.830000
-1.586000	-28.182001	1032.729980	-8.929375	3.150000	-5.131875
-1.342000	-12.932000	1040.964966	-5.656875	2.485000	-2.887500
-10.126000	16.836000	1019.919983	-6.146875	6.256250	2.388750
-6.710000	37.209999	1017.723999	-2.135000	2.117500	5.989375
14.823000	42.334000	1009.671997	-0.551250	-12.022500	13.960625
-9.333000	10.675000	1026.020020	5.600000	-15.347500	17.014376
40.504002	75.152000	1023.092041	18.786249	-12.481875	21.936251
78.995003	102.113998	1036.511963	29.557501	-5.083750	20.094376
70.882004	83.264999	1055.604980	22.566250	11.396875	29.973125
-17.750999	66.551003	1042.368042	9.143750	8.163750	1.645000
31.110001	64.416000	980.941040	8.295000	6.313125	-13.903750
-32.513000	15.555000	939.095032	9.174375	-16.349375	-26.000626
62.098000	50.325001	1046.760010	5.941250	-15.693125	-27.947500
24.948999	17.141001	958.127014	-13.155625	-1.763125	-21.223125
31.232000	-62.220001	1011.197021	-14.783125	20.553749	-19.197500
44.225002	-125.965004	1011.989990	-5.193125	1.946875	-24.727501
88.450005	-156.160004	968.436035	5.674375	-5.678750	-11.655000
31.476000	-221.369003	1018.760986	22.330000	-48.663124	-6.028750
77.409004	-299.753998	1143.811035	-9.310000	-10.539375	-12.197500
96.075005	-368.683990	1109.529053	-9.200625	18.493126	-16.480625
61.061001	-362.766998	1054.690063	-16.065001	9.323125	-4.816875
-11.224000	-339.526001	990.579041	-16.135000	15.732500	1.636250
19.153999	-264.069000	984.783997	-3.780000	26.468750	-0.787500
39.406002	-302.071991	929.213013	-17.850000	6.846875	5.311250
80.031998	-190.503006	1003.267029	-5.473125	7.065625	25.891251
-62.159000	-304.511993	1001.986023	-16.935625	-20.488125	18.611250
75.579002	-182.268005	995.947021	-9.848125	-9.861250	2.213750
56.608002	-138.531006	965.142029	-4.274375	-15.071875	13.273750
111.813004	-85.339005	993.385010	-1.172500	-1.338750	12.398750
-5.917000	8.784000	925.614014	14.507500	6.107500	22.168125
66.489998	154.695999	942.877014	20.855625	2.476250	24.272499
-35.563000	169.580002	1010.953003	4.676875	-2.323125	4.611250
-19.337000	275.292999	1011.562988	0.713125	-4.519375	-18.405624
41.236000	311.343994	1112.457031	-6.142500	-5.022500	-25.624374
73.566002	281.088013	1103.185059	-13.536250	11.786250	-7.529375
17.934000	197.212997	1127.036011	-17.893749	15.601250	1.688750
5.856000	157.746002	1055.177979	-0.686875	16.065001	5.355000
21.533001	87.718002	1030.656006	8.995000	10.355625	2.808750
4.697000	46.237999	1011.197021	4.156250	6.326250	2.340625
37.209999	-1.220000	985.820984	10.193750	5.753125	1.942500
-13.054000	-10.614000	1005.218994	11.051250	0.735000	-4.493125
27.999001	-23.118999	1034.316040	12.818750	-1.378125	-10.355625
3.355000	-24.156000	1047.004028	9.581250	3.228750	-5.845000
-0.427000	-22.204000	995.825012	9.428125	12.849375	-5.950000
4.575000	-41.602001	1037.854004	8.653750	10.154375	3.088750
-16.104000	-84.424004	1001.681030	3.058125	-1.658125	7.008750
-2.684000	-115.350998	1013.820007	-6.076875	5.381250	9.712500
-44.164001	-124.562004	1008.208008	-10.167500	4.046875	3.692500
-34.038002	-91.500000	1019.554016	-3.237500	-1.771875	-9.034375
-7.747000	-65.758003	1025.593018	0.035000	-3.320625	-7.813750
-10.370000	-47.091999	1031.388062	-3.259375	-2.318750	-3.281250
-6.222000	-43.920002	990.700989	-2.887500	1.067500	-6.943125
-5.612000	-36.295002	1020.530029	-3.810625	-3.718750	-4.550000
1.037000	-46.360001	1013.332031	-5.490625	-0.678125	-0.201250
-12.627000	-45.445000	1013.880981	-1.386875	3.150000	5.871250
-21.045000	-50.874001	1010.160034	2.458750	-0.218750	6.370000
-6.588000	-41.663002	1023.763000	7.389375	0.656250	5.105625
-10.248000	-27.023001	1017.906982	5.145000	-1.277500	1.146250
-10.004000	-20.618000	1018.395020	-2.611875	0.813750	-0.354375
-15.616000	-23.302000	1019.798035	-3.622500	0.367500	-1.601250
-9.577000	-21.716000	1016.504028	-1.273125	0.113750	-1.141875
-10.858000	-14.823000	1026.568970	-0.560000	1.185625	0.433125
2.074000	-23.546000	1024.312012	0.087500	1.106875	0.494375
-9.333000	-13.725000	1012.173035	-0.039375	1.732500	-1.365000
-9.089000	-22.326000	1014.979004	-0.196875	0.717500	-2.235625
-14.152000	-13.237000	1001.681030	-0.503125	1.360625	-3.950625
-13.969000	-25.071001	1010.403992	0.896875	-0.813750	-4.204375
-10.797000	-69.112999	1032.912964	0.840000	-0.288750	-2.948750
-15.067000	-115.412003	1035.353027	3.491250	-4.620000	-5.228125
-16.958000	-167.262009	1035.353027	2.025625	-3.565625	-6.457500
2.257000	-225.944000	1039.256958	-0.140000	2.441250	-11.987500
8.235000	-216.001007	1012.600037	-5.543125	9.778125	-21.144375
18.056000	-160.307999	973.987000	-3.823750	13.308750	-21.708750
-12.322001	-109.738998	1009.001038	-5.429375	-3.224375	-1.369375
-7.015000	-106.262001	1011.014038	-13.199375	4.353125	9.485000
-65.758003	-88.876999	975.755981	-24.412500	19.901875	7.966875
-53.558002	-63.195999	991.981995	-7.608125	14.800625	-1.898750
-50.386002	-98.392998	1014.552002	0.581875	13.768125	4.860625
-56.730000	-130.113007	983.564026	-2.436875	13.628125	4.983125
-41.174999	-134.626999	987.163025	5.687500	4.090625	-1.561875
-81.374001	-60.633999	998.204041	8.303750	0.367500	-8.806875
-64.416000	-15.250000	977.342041	6.361250	-6.221250	-9.638125
-67.771004	79.666000	982.466003	4.532500	-10.854375	-13.260625
-68.076004	160.613007	1039.379028	11.926250	-6.886250	-4.466875
-68.442001	242.902008	1079.760986	3.902500	-12.915000	-1.968750
-40.809002	270.596008	1075.857056	0.070000	-14.262500	1.671250
-48.434002	303.902008	1129.963989	-8.614375	-5.569375	2.559375
-44.408001	285.601990	1080.676025	-13.523125	15.461250	8.575000
-51.545002	230.945999	1001.619995	-11.064375	1.439375	14.297500
-34.647999	147.376007	946.049011	4.795000	-9.590000	2.143750
71.980003	147.315002	994.605042	26.464375	-10.058125	22.233749
-106.627998	109.250999	1026.141968	4.095000	8.045625	24.206875
79.056000	-6.893000	984.234985	-2.288125	-16.191875	-11.265625
-24.888000	75.701004	974.231018	3.504375	-0.533750	23.498125
124.683998	-174.460007	962.092041	20.825001	-11.602500	17.828125
-75.029999	-125.965004	1009.549988	26.897499	-9.900625	31.145624
37.332001	-275.537018	1022.054993	31.228750	-11.165000	9.310000
-65.209000	-210.755005	1072.197021	21.559999	-1.036875	7.157500
46.848000	-225.944000	1052.494019	5.328750	-22.924999	-14.603750
14.701000	-201.848999	1087.874023	-13.978125	-2.865625	-13.960625
2.928000	-154.634995	1026.324951	-16.104376	4.051250	-11.729375
19.825001	-99.125000	972.156982	-22.168125	-2.865625	-25.746876
6.954000	-34.587002	1013.880981	-21.940624	-3.928750	-20.260626
32.390999	-27.267000	1016.504028	-16.397499	0.625625	-13.151250
13.969000	-33.549999	999.363037	-7.726250	9.970625	-2.703750
42.639000	-57.401001	1004.791992	-6.488125	-0.564375	0.612500
30.316999	-51.240002	1013.880981	-2.905000	0.997500	2.498125
31.415001	-60.329002	1007.109985	0.678125	0.586250	-2.266250
39.528000	-31.537001	999.911987	-2.362500	-6.545000	-3.880625
44.285999	-37.942001	1019.066040	-4.357500	2.716875	-1.391250
29.036001	-34.038002	1005.341003	0.673750	1.706250	4.563125
27.328001	-38.003002	1029.130981	5.328750	0.476875	7.988750
24.583000	-36.966000	1024.677979	9.677500	-1.793750	6.059375
42.334000	-21.899000	1018.944031	9.410625	0.446250	3.994375
22.326000	-20.252001	1013.088013	4.401250	-0.406875	4.427500
35.136002	-19.764000	1026.691040	3.990000	0.656250	3.373125
35.441002	-12.688000	1022.238037	4.305000	1.006250	4.685625
33.062000	-18.177999	1021.018005	2.861250	1.688750	3.885000
33.428001	-19.153999	1021.994019	4.011875	2.095625	2.865625
28.121000	-14.213000	1018.090027	1.277500	2.760625	-0.078750
29.402000	-9.272000	1013.575989	2.065000	3.955000	0.774375
36.417000	-0.915000	1011.502014	1.058750	2.883125	0.551250
30.927000	1.159000	1032.608032	0.507500	3.867500	4.055625
7.930000	7.198000	1026.935059	4.405625	5.258750	3.373125
0.366000	-2.928000	1014.369019	6.899375	7.551250	0.875000
7.808000	8.662000	1018.333984	11.003125	2.078125	-4.064375
26.108000	24.217001	1028.643066	6.466250	0.393750	-5.079375
13.298000	19.398001	1010.708984	0.686875	4.453750	-2.441250
11.468000	-32.146999	1025.898071	0.065625	-0.144375	-1.015000
-1.830000	-80.886002	1045.600952	-0.140000	1.141875	-3.928750
-8.845000	-130.845001	1038.036987	-7.000000	4.484375	-12.613125
19.642000	-152.438995	1012.112000	-10.101875	-1.693125	-11.895625
25.254000	-174.033005	1012.905029	-4.029375	-3.854375	-8.583750
4.575000	-183.427002	1014.796021	-0.866250	0.638750	-1.006250
-5.673000	-180.316010	984.601013	-14.533750	9.016875	-8.260000
3.904000	-153.598007	954.345032	-28.043751	29.491875	-13.076875
-28.914000	-95.221001	972.950012	-14.949375	-16.156876	-22.356251
-2.501000	-46.177002	1002.718018	-0.328125	-11.086250	-17.845625
-48.983002	-22.326000	1038.708008	8.688750	34.991249	-9.638125
-43.371002	-1.403000	999.119019	15.093750	22.260000	-6.558125
-44.285999	-8.357000	1001.681030	12.162500	6.593125	5.928125
-36.904999	-15.433001	1011.135986	-5.254375	4.650625	-1.496250
-85.583000	98.637001	1019.676025	-9.900625	4.436250	-19.433750
-13.115000	250.527008	1028.520996	17.473749	-5.827500	-5.166875
-28.487000	277.001007	1066.341064	10.268125	-5.884375	15.251250
-89.792000	274.011993	1109.773071	-12.040000	-4.077500	18.532499
-66.429001	290.115997	1073.966064	-18.895624	-4.725000	10.395000
-40.992001	272.975006	1032.912964	-9.878750	5.425000	3.845625
-41.846001	252.052002	1002.778992	-7.205625	-0.441875	-0.004375
-107.542999	256.871002	1008.695984	1.435000	0.721875	6.243125
-50.264000	175.253006	1037.854004	6.164375	-19.613125	-0.293125
20.374001	197.335007	1029.253052	4.007500	-19.844999	17.508751
-61.976002	91.256004	1114.531006	-17.373125	19.853750	22.128750
18.849001	3.904000	984.174011	-29.920626	33.376877	0.345625
-107.542999	-58.316002	1020.468994	-13.545000	3.696875	-11.956875
9.638000	-81.374001	1018.760986	2.108750	-20.028749	-11.007500
-16.714001	-223.686996	988.444031	8.671250	-12.171250	1.303750
7.991000	-247.354996	968.924011	26.604376	-11.016250	13.186250
-62.037003	-276.269012	971.729980	29.111250	-18.326876	7.603750
43.431999	-319.029999	1000.338989	30.073750	-34.011250	-2.148125
30.927000	-228.750000	1046.027954	26.136250	-13.195000	-14.630000
55.144001	-142.557007	1059.447998	9.957500	-18.038124	-20.020000
74.237000	-74.481003	1008.330017	-10.351250	5.753125	-11.685625
37.514999	-38.674000	977.281006	-10.915625	8.080625	-3.871875
28.182001	-25.925001	974.902039	-14.914375	15.535625	-1.623125
35.806999	-13.786000	988.932007	-21.678125	11.147500	-0.726250
31.842001	-12.322001	1007.171021	-26.416250	9.476250	0.468125
23.118999	-31.293001	1045.844971	-22.732500	3.959375	2.401875
-7.930000	-69.845001	1020.652039	-13.155625	-10.880625	-1.150625
45.750000	-90.889999	1021.811035	-11.865000	-13.037500	-8.299375
36.722000	-64.293999	1019.005005	-8.435000	5.267500	-8.627500
20.801001	-65.941002	1015.283997	-0.271250	3.241875	-2.240000
32.635002	-70.272003	1011.502014	-1.500625	-4.580625	-4.983125
49.593002	-63.195999	1024.373047	0.450625	0.043750	-2.572500
37.088001	-68.320000	1002.108032	-0.218750	0.437500	2.008125
40.015999	-72.895004	1027.422974	3.850000	3.705625	4.278750
44.225002	-60.878002	1007.049011	2.292500	-1.373750	7.008750
13.725000	-71.675003	1010.953003	3.893750	5.188750	5.521250
23.363001	-55.083000	1014.369019	5.985000	-0.590625	6.020000
41.602001	-52.459999	1025.227051	7.253750	-0.157500	2.865625
33.000999	-41.418999	1011.075012	7.551250	3.613750	4.475625
26.535000	-22.631001	1019.187988	5.853750	-0.306250	1.557500
41.602001	-16.469999	1023.458008	5.245625	-1.163750	2.130625
33.611000	-12.017000	1018.212036	4.077500	1.798125	-0.166250
41.968002	-26.047001	1013.515015	-3.211250	1.618750	1.023750
31.110001	-57.827999	1014.491028	-8.596875	1.850625	4.025000
19.947001	-88.084000	1006.622009	-1.903125	3.941875	2.467500
29.829000	-42.639000	989.664001	4.191250	1.128750	1.172500
22.264999	-43.920002	1018.273010	2.524375	-1.194375	2.983750
27.389000	-32.513000	1010.281982	2.655625	0.805000	1.736875
23.729000	-10.736000	1026.874023	-0.717500	-0.420000	3.298750
29.951000	24.521999	1027.362061	2.996875	0.026250	2.861250
45.445000	67.282997	1012.843994	11.676875	0.498750	4.628750
36.783001	55.021999	1031.815063	13.702500	6.663125	11.563125
61.610001	9.760000	1036.878052	14.949375	-1.176875	12.766250
10.614000	6.832000	1024.617065	6.733125	3.924375	7.542500
22.204000	-8.357000	1023.640991	2.848125	5.512500	0.918750
39.466999	9.821000	1007.536987	-6.243125	3.950625	-1.640625
25.986000	49.776001	1026.812988	2.257500	4.585000	-1.023750
22.509001	113.154999	1010.953003	6.243125	3.556875	0.739375
44.042000	141.276001	1025.714966	8.128750	3.753750	6.750625
-48.434002	245.647003	987.163025	17.346874	6.496875	-5.442500
24.827000	238.143997	969.106995	22.478750	-13.562500	-15.798125
30.866001	189.710007	1015.223022	8.518125	-24.920000	-36.334373
38.735001	61.976002	1069.513062	-14.980000	10.688125	-27.225624
40.382000	-180.987000	992.531006	-35.328125	27.120625	-11.611250
11.163000	-306.647003	1011.562988	-37.725624	18.991875	-10.202500
20.557001	-325.984009	1063.962036	-7.450625	-0.297500	-7.367500
8.601000	-327.020996	1023.885010	16.196251	2.038750	-4.878125
-21.410999	-250.344009	998.936035	25.860624	7.052500	-0.389375
-34.831001	-208.498001	949.221008	14.332500	6.969375	-1.242500
-23.668001	-151.889999	937.265015	-5.477500	4.182500	7.630000
-33.611000	-141.276001	1032.425049	-20.864374	-7.406875	11.445000
-28.792000	-133.285004	1041.391968	-27.671875	7.017500	13.374375
-40.320999	-167.750000	1017.114014	-35.419998	0.459375	18.672501
-29.829000	-167.262009	989.114990	-25.073126	-1.194375	17.294374
-20.862000	-181.231003	969.290039	-9.905000	2.800000	14.927500
-28.121000	-143.899002	968.863037	-1.071875	2.546250	2.100000
-22.875000	-87.047005	975.390015	7.236250	-0.708750	-2.773750
-35.014000	40.504002	1009.794006	0.866250	5.661250	-6.002500
-22.204000	109.433998	1017.174988	-8.505000	17.920000	-1.150625
-60.573002	84.790001	1060.057983	-17.740625	0.393750	-2.069375
-29.280001	104.371002	1028.338013	-24.320625	-21.818125	1.448125
-35.990002	86.437004	1067.195068	-15.561875	-2.988125	3.976875
-13.420000	74.481003	1070.916016	6.619375	-0.398125	2.091250
-30.256001	47.824001	1076.588989	18.983126	-7.030625	4.348750
-11.712000	54.290001	1016.504028	19.215000	-8.942500	3.924375
-0.915000	36.173000	1021.627991	24.430000	-5.989375	6.370000
-17.934000	18.544001	1036.390015	18.851875	-1.614375	0.656250
8.967000	-4.575000	1051.151978	7.013125	11.536875	-4.414375
2.074000	-25.498001	996.007996	2.441250	9.441250	-7.341250
-8.235000	-57.157001	970.265991	12.963125	4.169375	-10.718750
-10.309000	-42.639000	1019.676025	14.958125	-0.822500	-12.792500
-2.684000	-65.819000	1055.787964	2.275000	1.128750	-9.209375
-25.132000	-85.460999	996.007996	-8.400000	4.405625	-8.658125
-6.283000	-83.387001	966.971985	-6.496875	4.878125	-7.892500
-13.481000	-78.140999	984.783997	-2.642500	1.378125	-5.201875
2.257000	-33.549999	1021.505981	3.823750	1.211875	1.461250
-23.180000	-26.901001	1018.760986	7.091875	-3.885000	11.856250
-28.914000	-30.316999	1026.081055	10.036250	-3.018750	9.773750
-29.585001	-15.189000	1048.041016	2.979375	-3.412500	6.203750
-22.021000	-11.468000	1035.170044	0.551250	0.875000	-0.411250
-22.570000	-7.442000	1031.388062	-2.318750	2.957500	-1.898750
-22.143000	-17.323999	1008.574036	-3.998750	6.339375	-1.146250
-17.080000	-20.740000	1013.332031	3.766875	3.066875	-0.402500
-23.546000	-19.642000	1030.534058	7.962500	1.369375	1.146250
-23.058001	-22.814001	1011.135986	9.043125	1.675625	5.643750
-30.500000	-46.909000	989.968994	17.373125	0.918750	8.868125
-17.385000	-48.861000	1000.705017	23.012501	-4.523750	9.275000
-22.082001	-61.183002	997.777039	10.841250	-4.961250	5.565000
-22.509001	-57.767002	1017.480042	0.000000	-3.596250	4.427500
-31.415001	-75.701004	1012.416992	-11.221875	2.436875	1.382500
-33.855000	-94.855003	1053.409058	-20.706875	1.601250	0.087500
-18.849001	-91.927002	1036.572998	-10.828125	6.378750	-0.787500
0.427000	-66.917000	1024.494995	-4.816875	15.872500	1.050000
-47.153000	-54.473000	982.527039	2.585625	20.930000	4.095000
-32.330002	-15.982000	1002.046997	1.986250	20.046249	-3.465000
-41.358002	-7.564000	996.312988	-4.471250	12.753125	-7.647500
-38.857002	16.226000	1004.426025	-12.101250	-0.818125	-10.539375
-63.074001	29.889999	1006.744019	-14.892500	5.096875	-7.708750
-63.562000	86.253998	1029.802002	-7.691250	-9.454375	-7.494375
-59.353001	203.496002	1036.695068	1.583750	-4.956875	-8.960000
-54.167999	273.463013	1011.867981	15.811250	-23.419374	7.258125
-34.160000	277.428009	1014.064026	20.457500	-3.447500	13.833750
-86.925003	287.187988	1077.504028	-1.054375	-7.266875	6.361250
-38.125000	216.854996	1019.187988	-19.499374	-9.310000	19.683125
-25.742001	139.994995	1001.742004	1.916250	8.102500	19.516874
-19.276001	117.425003	1024.433960	32.099377	-1.334375	10.745000
5.795000	116.022003	962.092041	37.393124	-7.231875	-2.760625
41.480000	142.679001	959.957031	34.059376	-21.126875	-22.404375
-51.910999	235.033005	1006.377991	13.326250	2.734375	-15.041250
-3.965000	158.722000	1022.665039	2.695000	-10.990000	-14.599375
-7.747000	78.690002	1096.841064	-1.666875	-2.856875	4.392500
-38.003002	-36.660999	1089.399048	-19.656876	2.695000	-5.884375
-23.485001	-113.033005	1049.566040	-23.174376	14.700000	-12.293750
-61.122002	-154.268997	1065.853027	-16.030001	8.723750	-14.730625
-50.142002	-144.570007	1045.540039	3.976875	13.295625	-8.758750
-24.095001	-122.305000	1019.432007	9.388750	12.429375	-13.479375
-22.814001	-54.961002	1030.290039	-3.027500	2.126250	-8.255625
-30.927000	-59.963001	1005.036011	-22.071875	11.935000	-3.605000
-43.980999	-40.992001	983.442017	-25.501875	11.379375	-11.427500
-49.776001	-0.915000	984.418030	-19.521250	-3.097500	-8.684375
-59.353001	-15.616000	1027.849976	-15.430625	-10.731875	-6.453125
-53.558002	-28.609001	1032.973999	-4.738125	-11.624375	-5.775000
2.684000	-34.709000	1031.204956	2.248750	-14.210000	5.311250
-1.586000	-39.101002	1021.932983	6.728750	-14.931875	14.901250
-24.888000	-27.938000	1020.468994	10.403750	-16.030001	15.645000
-14.213000	12.322001	1015.588989	17.399376	17.976875	13.234375
-26.779001	22.387001	994.056030	5.639375	8.115625	5.718125
-22.143000	17.446001	1005.096985	-1.194375	-4.589375	1.907500
-10.065001	26.291000	1025.714966	-0.424375	-5.302500	0.411250
-16.592001	19.153999	1002.351990	-1.798125	-3.010000	-2.699375
-19.703001	14.518001	1005.341003	-3.290000	0.096250	0.271250
-9.821000	-5.429000	1013.332031	-4.641875	-0.866250	2.331875
-33.184002	-2.013000	1008.268982	-4.641875	2.826250	-0.131250
-28.365000	-2.989000	1018.273010	0.726250	-1.334375	-1.251250
-23.118999	-0.854000	1025.104980	4.935000	-2.686250	-2.419375
-15.128000	13.603000	1027.178955	-0.126875	-2.791250	-3.421250
-14.823000	3.477000	1010.526001	-1.102500	-0.997500	-1.426250
9.638000	20.557001	1014.369019	-0.818125	0.126875	-1.260000
0.366000	22.691999	1005.036011	-0.848750	0.783125	-1.968750
-4.087000	14.518001	1012.112000	-2.191875	-1.693125	-2.664375
-7.015000	33.855000	1029.497070	-2.616250	-2.261875	-2.135000
5.734000	27.816000	1027.545044	-3.045000	-1.010625	-1.137500
-8.662000	-30.622000	1031.144043	-3.771250	1.544375	0.560000
-5.795000	-125.721001	1068.415039	1.671250	0.700000	-0.638750
-17.629000	-228.384003	1091.961060	-0.555625	-6.741875	0.179375
-2.867000	-255.651001	1021.689026	5.635000	4.847500	-10.727500
-0.061000	-174.337997	993.445984	14.984375	5.551875	-14.590625
47.640999	-134.444000	965.264038	1.736875	-4.138750	-9.314375
29.402000	-41.418999	978.622986	-19.591249	14.284375	0.196875
-9.882000	-18.910000	956.479980	-4.248125	25.256874	3.500000
-52.399002	25.375999	982.710022	6.125000	17.018749	-7.835625
-54.900002	65.636002	1000.156006	-2.257500	27.365625	-11.488750
-61.732002	85.217003	1042.307007	-11.711875	13.895000	-1.338750
-72.041000	102.418999	1028.276978	-12.608750	16.909374	4.252500
-78.263000	134.139008	1011.014038	-6.628125	10.889375	10.570000
-81.374001	180.376999	1050.114990	-7.971250	-4.838750	7.971250
-94.733002	195.871002	1069.513062	-9.388750	-0.301875	7.323750
-94.123001	217.160004	1072.135986	4.471250	2.673125	3.771250
-89.974998	232.104996	1030.046021	12.101250	-4.261250	7.857500
-75.152000	198.981995	1010.038025	14.017500	-7.157500	7.240625
-109.983002	205.387009	1014.429993	16.244375	-9.533125	6.558125
-96.929001	221.063995	995.215027	23.616249	-17.727501	-0.625625
8.601000	226.249008	979.538025	30.240000	-24.237499	-1.159375
36.660999	232.959000	1045.052002	21.581875	-13.951875	16.896250
-46.055000	156.464996	968.497009	8.155000	-12.998125	22.347500
-5.490000	139.141006	1063.412964	-1.019375	-19.801250	19.009375
82.837997	66.794998	1011.684998	5.810000	-8.675625	27.208124
-27.267000	-85.339005	992.592041	3.307500	26.888750	5.897500
-39.833000	-103.639000	1021.750000	-10.333750	4.808125	-9.996875
-28.487000	-200.873001	1040.416016	-24.648750	-9.944375	-25.873751
16.042999	-220.820007	1054.385010	-27.514376	5.236875	-19.534374
-24.948999	-187.514008	1019.737000	-20.510000	10.727500	-18.375000
-43.675999	-101.260002	998.082031	-9.703750	6.860000	-21.581875
-51.545002	-64.050003	1009.001038	-10.395000	0.240625	-23.585625
-37.881001	-2.623000	1031.754028	-7.284375	0.800625	-20.969376
-12.383000	-9.150001	1012.234009	-7.665000	1.220625	-11.239375
-20.434999	-5.795000	1006.622009	-11.480000	-0.918750	-1.133125
-18.605000	-13.481000	1017.663025	-4.571875	-4.326875	6.356875
-23.302000	-22.753000	1023.335999	1.001875	0.516250	6.321875
-10.797000	-21.045000	1002.108032	-2.135000	-0.061250	3.486875
-29.951000	-10.797000	1043.099976	1.351875	1.907500	-0.113750
-10.187000	-0.976000	997.044983	3.451875	-1.614375	0.643125
-19.886000	-15.128000	1012.173035	0.966875	2.270625	2.730000
-16.348000	-4.880000	1007.476013	0.861875	-1.986250	0.927500
-2.562000	-7.442000	1014.856995	-1.780625	0.717500	1.758750
-1.830000	-14.640000	1024.617065	-0.691250	0.472500	1.701875
-3.965000	-24.217001	1011.197021	-2.152500	2.213750	1.741250
-21.716000	-26.413000	1022.054993	-0.468125	1.067500	-0.105000
-9.394000	-38.186001	1008.574036	-0.315000	-1.785000	-0.122500
-19.703001	-29.585001	1026.508057	2.406250	-0.507500	1.645000
-9.089000	-22.814001	1010.221008	6.588750	-3.443125	2.165625
-25.254000	-13.603000	1033.706055	6.523125	1.421875	4.672500
-21.106001	-6.222000	1022.481995	5.088125	0.030625	3.451875
-14.274000	-26.535000	1023.885010	5.486250	-4.401250	-1.150625
-12.932000	-15.799000	1031.448975	11.055625	-7.030625	-3.329375
-19.337000	18.788000	1025.471069	11.475625	-2.480625	-3.119375
-2.501000	-2.135000	1032.119995	5.875625	-1.837500	1.872500
-9.455000	-45.506001	1047.125977	-0.678125	1.395625	5.385625
8.113000	-113.216003	1021.384033	-2.870000	-1.736875	7.183750
7.625000	-160.003006	1026.385986	-3.736250	-1.050000	2.021250
21.777000	-105.164001	980.392029	3.854375	4.624375	-5.735625
-14.396000	-83.264999	980.026001	1.063125	7.914375	-1.811250
22.570000	-71.492004	985.942993	-11.536875	7.612500	-0.739375
-9.882000	-79.971001	1010.770020	-42.424374	16.786875	7.520625
-40.931000	-62.281002	1000.705017	-44.025623	48.286877	30.655624
-70.089005	-100.405998	990.213013	-9.003750	9.463125	24.215626
-58.560001	-26.779001	992.713989	19.827499	5.753125	13.720000
-48.861000	79.788002	1025.958984	25.112499	21.275625	4.252500
-83.204002	157.440994	1028.947998	12.311250	-6.370000	5.495000
-69.295998	212.585007	1019.981018	-4.668125	-4.287500	2.345000
-91.377998	219.904999	1041.331055	-17.193750	-3.491250	2.865625
-45.932999	241.132996	1036.878052	-23.712500	-2.839375	0.883750
-89.609001	203.434998	1067.561035	-25.081875	-7.577500	17.526251
-60.329002	135.298004	1051.761963	-13.575625	-4.471250	19.223749
-49.348999	83.814003	1039.196045	-0.853125	-3.263750	13.571250
-65.819000	80.520004	1047.979980	16.025625	-16.708124	3.066875
-46.909000	93.513000	1028.459961	29.268749	-11.633125	0.634375
-34.770000	66.978004	1002.962036	27.531876	-3.648750	-3.906875
-71.003998	40.015999	1048.895020	21.494375	13.553750	-9.073750
-60.756001	-9.272000	1045.357056	-10.950625	26.438126	-15.601250
-109.128998	-62.098000	969.229004	-19.184376	14.446250	-15.063125
-90.646004	-128.832001	976.366028	-7.074375	9.550625	-14.061250
-71.980003	-202.520004	1014.064026	-0.840000	-10.618125	-18.300625
-63.195999	-201.727005	1006.317017	6.461875	-9.415000	-21.131250
-44.347000	-176.716995	1018.212036	12.088125	-3.132500	-9.139375
-44.713001	-163.419006	1019.187988	4.309375	6.632500	-3.570000
-60.451000	-109.678001	1026.812988	5.788125	-0.236250	0.861875
-74.298004	-78.995003	1009.733032	2.572500	-8.820000	5.490625
-91.682999	-71.492004	1036.207031	2.918125	-1.903125	1.246875
-70.455002	-21.960001	1008.757019	-3.298750	1.369375	-6.763750
-38.552002	-14.457000	1023.213989	-6.610625	8.680000	-0.555625
-92.232002	-4.148000	1003.694031	-5.731250	5.823125	0.424375
-65.941002	0.183000	1001.742004	-1.369375	1.281875	-0.371875
-72.346001	1.647000	1029.802002	-0.818125	-6.886250	-0.844375
-55.632000	11.590000	1018.395020	2.121875	-7.315000	-2.078125
-58.804001	6.771000	1012.112000	0.463750	-4.838750	-2.537500
-56.852001	5.124000	1018.944031	4.799375	-5.941250	-3.801875
-44.774002	11.590000	1023.092041	3.430000	-8.452500	-5.915000
-36.417000	-3.294000	1019.309998	-1.273125	-5.368125	-6.921250
-33.611000	-0.793000	1010.343018	-4.186875	-4.746875	-7.393750
-29.707001	-4.026000	1011.867981	-4.125625	-6.483750	-4.186875
-24.400000	-30.195000	1015.893982	-3.351250	-3.381875	-0.424375
-46.848000	-24.034000	1016.199036	2.266250	0.008750	0.721875
-39.711002	-14.396000	1004.609009	3.311875	1.124375	3.263750
-32.879002	-27.450001	1029.009033	4.615625	0.153125	1.395625
-25.620001	2.013000	1036.878052	3.430000	-1.194375	0.507500
-23.546000	-4.392000	1003.389038	-0.109375	5.219375	-0.293125
-41.114002	-2.928000	1026.324951	3.307500	-0.533750	-0.927500
-22.264999	-16.531000	1012.783020	3.968125	1.470000	-2.362500
-31.964001	-15.799000	1003.389038	2.393125	-2.384375	-4.663750
-17.263000	-26.413000	1009.367004	-0.175000	-10.386250	-6.151250
-14.274000	-50.142002	1034.864990	-5.718125	-9.021250	-6.803125
-11.712000	-62.586002	1026.020020	-0.161875	-7.118125	-7.546875
-20.618000	-113.887001	1065.914062	7.800625	-6.212500	-8.640625
-31.964001	-119.804001	1048.406982	5.210625	1.701875	-15.684375
-4.026000	-137.250000	1056.214966	-22.828751	-2.555000	-15.133125
41.907001	-162.565002	1024.860962	-22.850624	6.527500	-15.964375
34.952999	-188.856003	997.593994	-21.805000	6.216875	-5.845000
30.805000	-179.828003	984.174011	-22.137501	14.354375	2.489375
-38.247002	-161.955002	907.252991	-11.882500	2.975000	11.208750
5.612000	-115.534004	960.932983	-14.113750	-11.064375	6.278125
-14.579000	-48.799999	996.069031	-2.935625	14.363125	0.196875
-3.172000	48.312000	1000.643982	5.359375	6.790000	13.881875
-27.632999	85.827003	1055.848999	-8.863750	11.344375	24.281250
-6.405000	130.906006	989.664001	-15.124375	1.102500	21.730625
9.760000	210.572006	1072.685059	-0.621250	-10.766875	22.281876
4.880000	205.326004	1111.664062	10.850000	-6.991250	12.490625
76.555000	249.490005	1069.452026	16.257500	6.431250	6.829375
-19.886000	229.238007	1031.937012	-4.703125	12.906250	5.595625
-79.361000	209.108002	990.091003	-10.062500	8.133125	-0.721875
-50.264000	116.083000	980.697021	20.925625	0.210000	15.010625
-62.098000	37.698002	1011.380005	39.571877	-0.638750	2.765000
30.439001	50.081001	1020.957031	39.458126	10.465000	-8.706250
-52.277000	82.289001	1011.624023	38.141251	9.205000	-5.998125
1.647000	52.826000	1014.918030	26.407499	10.355625	1.404375
-58.194000	7.320000	1011.929016	18.816875	-14.393750	4.375000
-83.142998	18.910000	1022.116028	7.756875	-10.150000	-12.565000
-95.831001	-6.466000	1023.153015	-13.746250	-5.775000	-11.379375
-85.460999	-46.970001	1029.436035	-21.209999	-1.750000	-18.869375
-47.885002	-95.465004	1018.639038	-14.411250	-4.681250	-16.498125
-11.956000	-151.218994	1008.330017	-6.361250	-3.762500	-13.400625
-12.139000	-131.333008	1041.697021	-3.941875	-2.016875	-11.375000
-46.116001	-135.175995	1054.750977	-1.898750	6.365625	-8.706250
-37.271000	-86.681000	1005.218994	-1.728125	7.183750	-13.860000
-25.864000	-31.537001	1006.804993	-2.104375	-15.015000	-12.538750
-19.459000	-13.786000	995.825012	-4.453750	5.827500	-5.407500
-40.382000	6.710000	1008.330017	-6.199375	0.879375	3.285625
-27.145000	-0.671000	1023.092041	-13.566875	-8.338750	2.686250
-11.407001	-7.747000	1012.843994	-15.028125	-3.648750	5.512500
-25.315001	-11.773000	1019.676025	-4.510625	-7.717500	3.858750
-26.535000	-10.126000	1010.830994	5.963125	-3.491250	2.673125
-18.300001	-2.440000	1028.399048	8.448125	5.827500	4.318125
-14.762000	6.405000	1020.041992	6.601875	0.472500	0.201250
-8.418000	15.921000	1007.293030	1.885625	2.371250	-3.250625
-7.381000	21.777000	1012.600037	-3.290000	3.241875	-2.786875
-24.156000	10.553000	1009.367004	-4.038125	1.745625	-1.610000
-11.834001	3.355000	1023.092041	-4.007500	-3.294375	0.831250
5.917000	4.514000	1009.428040	-1.268750	-2.835000	-0.266875
-10.248000	2.135000	1024.494995	0.288750	-1.754375	1.697500
-8.601000	4.697000	1004.669983	0.240625	-1.907500	0.240625
-5.124000	-2.989000	1015.345032	-1.570625	-4.773125	-1.767500
-2.318000	3.111000	1026.995972	-2.016875	0.043750	0.070000
-3.965000	-11.712000	1016.565002	-1.579375	-1.872500	-0.546875
2.684000	-8.357000	1026.447021	2.988125	-1.146250	-0.739375
AccX[mg]	AccY[mg]	AccZ[mg]	GyrX[dps]	GyrY[dps]	GyrZ[dps]
-17.141001	5.856000	1014.796021	-0.319375	1.102500	-0.730625
