A_X[mg]	A_Y[mg]	A_Z[mg]	G_X[dps]	G_Y[dps]	G_Z[dps]	
227.042007	79.178001	1038.219971	-25.471251	-27.825001	-29.093750
232.776001	80.153999	1042.916992	-26.061874	-27.772499	-29.181250
236.070007	78.933998	1042.612061	-25.895624	-27.684999	-29.137501
230.275009	82.289001	1040.660034	-25.615625	-27.842501	-29.159374
235.277008	84.912003	1039.806030	-25.331249	-27.741875	-29.233749
235.947998	80.641998	1035.657959	-25.676874	-27.698126	-29.163750
233.874008	79.178001	1046.271973	-25.991875	-27.719999	-29.106874
234.362000	76.006004	1042.245972	-25.873751	-27.803125	-29.246876
236.923996	81.679001	1042.855957	-25.921875	-27.575624	-29.168125
231.128998	81.008003	1040.781982	-25.410000	-27.514376	-29.111250
231.556000	83.204002	1038.463989	-25.768749	-27.825001	-29.181250
239.791000	88.023003	1039.196045	-25.996250	-27.803125	-29.141874
232.837006	82.349998	1041.880005	-25.663750	-27.715626	-29.150625
223.443008	77.835999	1041.026001	-25.375000	-27.763750	-29.176874
238.143997	83.752998	1044.015015	-25.620001	-27.724375	-29.089375
245.037003	83.082001	1040.171997	-26.267500	-27.790001	-29.203125
235.764999	76.432999	1044.747070	-25.768749	-27.610624	-29.106874
226.005005	78.385002	1043.953979	-25.716249	-27.798750	-28.966875
228.018005	86.315002	1046.942993	-25.891251	-27.676250	-29.128750
237.473007	87.718002	1047.248047	-25.532499	-27.671875	-29.211876
237.778000	84.424004	1044.807983	-25.641874	-27.768126	-29.334375
231.494995	73.504997	1043.588013	-25.733749	-27.855625	-29.334375
233.141998	78.507004	1039.927979	-25.768749	-27.741875	-29.080626
236.009003	83.387001	1042.428955	-25.926250	-27.536249	-29.054375
234.606003	78.812004	1036.207031	-25.641874	-27.746250	-29.028126
230.701996	84.485001	1039.073975	-25.729376	-27.868750	-29.176874
226.798004	75.701004	1042.307007	-25.440624	-27.671875	-29.045626
231.983002	74.907997	1038.098022	-25.729376	-27.492500	-28.980000
236.009003	80.825005	1046.942993	-25.646250	-27.575624	-28.875000
236.192001	86.681000	1042.001953	-25.549999	-27.693750	-28.993126
230.275009	79.238998	1041.026001	-25.991875	-27.562500	-28.993126
232.166000	75.274002	1040.171997	-25.856251	-27.711250	-29.049999
234.423004	84.119003	1040.904053	-25.615625	-27.623751	-29.028126
237.229004	82.106003	1045.113037	-25.532499	-27.654375	-29.014999
228.079010	81.862000	1041.880005	-25.729376	-27.580000	-29.080626
229.725998	84.180000	1045.479004	-25.917500	-27.580000	-29.098125
225.212006	61.183002	1027.605957	-42.853127	-10.858750	-29.028126
220.454010	51.056999	1067.072998	-35.525002	-16.668751	-29.014999
207.033997	47.824001	1036.024048	-30.135000	-21.713125	-29.413124
282.795990	-70.943001	1131.977051	-22.561874	-28.962500	-28.599375
273.829010	24.156000	1080.920044	-27.531876	-31.110624	-43.487499
216.977005	145.057999	1043.282959	-29.067499	-29.855000	-64.693123
24.217001	154.513000	1054.079956	-27.496876	-29.894375	-60.917500
122.792999	291.946014	1048.956055	-22.356251	-30.117500	-31.128124
38.857002	49.105000	1095.560059	-14.358750	-26.976250	27.776875
372.404999	-225.882996	1023.031006	-23.743126	-21.629999	38.031876
344.345001	-18.726999	976.976013	-20.982500	-27.107500	9.625000
514.596008	-81.008003	1069.329956	-25.930626	-28.021875	-39.742500
325.496002	158.294998	1183.461060	-28.240625	-37.869999	-99.811249
9.943000	157.014008	986.796997	-20.632500	-35.275623	-101.377502
106.811005	66.001999	1060.911987	-40.573750	-16.905001	-45.526249
-3.416000	174.826004	1036.572998	-22.763124	-27.076876	0.905625
277.183990	-150.304001	1059.020996	-19.302500	-22.365000	51.904999
404.856995	191.296005	1096.109009	-21.214375	-29.610001	34.151249
351.908997	37.209999	1054.750977	-22.999374	-31.342501	-15.190000
346.662994	-65.331001	1047.187012	-28.861876	-35.323750	-98.301872
-19.215000	306.463989	974.109009	-45.023125	-30.848125	-112.708748
183.488007	10.248000	1079.333984	-29.347500	-24.276875	-48.934376
7.381000	103.821999	1037.549072	-14.196875	-28.608126	-25.532499
169.153000	91.317001	1079.943970	-26.166876	-19.499374	26.836250
349.774017	11.956000	1020.164001	-24.850000	-24.679375	18.851875
251.259003	46.542999	1037.854004	-24.333750	-29.715000	-19.722500
507.825012	-122.000000	1029.863037	-29.513750	-31.994375	-70.315002
109.495003	182.085007	977.403015	-34.299999	-35.017502	-112.310623
159.759003	70.760002	1084.458008	-25.580626	-25.878124	-50.465626
-73.321999	113.338005	1081.774048	-10.815000	-22.758751	-11.191250
395.584991	-43.554001	1049.566040	-18.033751	-23.743126	23.760626
400.587006	35.746002	1010.221008	2.310000	-32.882500	1.745625
294.812988	-35.685001	1037.609985	-20.645624	-31.828125	-38.731876
252.113007	-6.954000	1013.880981	-41.693748	-32.970001	-97.890625
-17.019001	128.953995	1018.882996	-27.641251	-24.784374	-48.081249
24.521999	71.796997	1043.893066	-27.641251	-22.058750	9.419375
291.885010	85.155998	1026.141968	-21.883751	-22.058750	9.419375
291.885010	68.807999	1065.609009	-1.802500	-28.910000	23.988125
270.778992	68.807999	1065.609009	-16.721251	-32.300625	-20.965000
232.104996	-15.433001	1304.363037	-43.750000	-33.363750	-96.066254
-148.412994	243.878006	995.398010	-53.838749	-21.875000	-56.402500
119.499001	54.656002	1044.990967	-21.070000	-23.257500	-22.036875
307.562012	-38.186001	1077.504028	-16.432501	-25.278749	-7.476875
214.232010	71.492004	1043.343994	-20.908125	-27.768126	-23.340626
196.542007	62.037003	1043.832031	-25.733749	-27.921249	-29.601250
192.516006	62.464001	1046.211060	-25.808125	-27.488125	-28.879375
204.106003	70.210999	1043.466064	-24.902500	-27.654375	-28.945000
210.632996	71.980003	1051.701050	-25.094999	-28.013124	-29.098125
176.046005	51.362000	1075.490967	-27.864374	-27.873125	-29.518126
226.737000	56.547001	1034.743042	-20.291250	-30.170000	-29.413124
202.824997	68.807999	1053.286987	-21.826876	-29.395624	-29.286249
220.880997	69.174004	1056.824951	-23.489374	-28.594999	-29.701876
209.779007	71.003998	1045.479004	-24.145624	-27.916876	-29.596874
272.548004	110.105003	1077.625977	-22.666876	-29.846251	-35.393749
268.278015	67.282997	1057.495972	-20.291250	-23.646875	-35.791874
96.501999	59.597000	1011.624023	-13.352500	-23.082500	-20.807501
207.583008	112.544998	1061.217041	-19.267500	-22.373751	-21.061251
162.259995	129.442001	1237.994995	-5.998125	-37.134998	-28.411249
357.032990	306.281006	1243.363037	5.136250	-41.488125	-36.115623
235.643005	85.522003	1130.696045	17.438749	-60.248123	-30.410625
156.281998	128.100006	772.260010	-15.050000	-47.669998	-24.556875
100.710999	-77.225998	564.677002	-20.842501	-23.384375	-35.061249
216.488998	17.323999	624.884033	-50.216251	-14.988750	-24.158751
103.090004	65.819000	895.053040	-73.447502	-13.356875	-17.167500
287.187988	241.011002	1322.175049	-41.728748	-7.083125	-30.848125
344.283997	139.751007	1501.393066	-12.101250	-23.817499	-36.719376
236.923996	133.406998	1233.420044	-13.951875	-36.032501	-27.313126
335.804993	95.953003	1056.093018	8.636250	-40.114376	-40.411877
172.324997	44.774002	684.786011	1.995000	-43.780624	-36.868126
99.247002	64.598999	492.453003	-14.336875	-24.543751	-36.365002
222.040009	375.638000	790.987000	-53.991875	-5.718125	-33.740002
180.132996	104.493004	1282.708008	-47.201874	-23.047501	-27.531876
265.045013	95.709000	901.518982	-33.573750	-24.307501	-55.776875
217.281998	116.570999	1225.124023	-7.284375	-33.455624	-44.143749
225.639008	152.438995	1081.164062	-7.056875	-44.314377	-27.702499
97.966003	167.018005	902.494995	5.888750	-28.468124	-41.816250
257.237000	-8.967000	596.153015	-8.793750	-16.117500	-40.219376
166.591003	-73.931999	717.726013	-72.248749	-11.410000	-20.299999
280.539001	1027.239990	1998.604004	-76.890625	-0.122500	-23.043125
258.457001	332.632996	1237.323975	20.203751	-42.139999	-36.675625
185.867004	121.207001	1035.170044	23.073750	-36.793751	-45.596249
245.098007	53.741001	814.960022	10.858750	-32.418751	-48.825001
144.143005	-32.146999	499.528992	-43.281876	-23.314375	-37.130627
150.975006	142.800995	864.796997	-85.120003	-25.821251	-8.907500
213.134003	745.419983	1576.484009	-65.463127	-11.291875	-27.615000
352.458008	158.722000	1231.346069	32.340000	-21.599375	-53.195625
155.854996	49.897999	824.231995	11.020625	-42.783127	-39.961250
108.458000	70.698997	537.348999	-32.528126	-25.760000	-43.211876
99.857002	-17.385000	754.692017	-81.051247	-24.968124	-21.301874
81.862000	967.520996	1998.604004	-86.502502	36.745625	-46.099377
407.235992	238.876007	1365.240967	17.674999	-23.362499	-37.143749
257.725006	88.266998	913.414001	28.249374	-41.409374	-43.889999
50.691002	71.980003	598.898010	-7.770000	-35.043751	-46.033749
63.440002	-14.457000	622.017029	-49.319374	-30.419374	-32.239376
311.832001	120.779999	1185.291016	-67.116875	-37.069374	-6.619375
382.165009	-72.163002	1213.777954	-12.516875	-36.994999	-39.138748
282.247009	130.906006	1119.959961	14.437500	-20.759375	-57.671249
197.945007	58.011002	970.815002	-13.846875	-30.646875	-36.846249
75.396004	159.393005	732.914978	-24.342501	-22.426250	-37.454376
62.037003	-77.348000	655.140015	-52.276875	-23.410625	-22.426250
771.283997	755.302002	1597.956055	-70.205627	-48.584373	4.948125
281.149017	164.822006	1414.589966	43.758751	-65.121872	-19.236876
256.016998	118.461998	1082.078979	17.618126	-26.105625	-44.436874
305.915009	97.966003	954.040039	0.052500	-37.261875	-44.690624
1.891000	98.332001	616.039001	-23.839375	-29.133125	-44.756248
114.009003	-54.534000	785.679993	-46.860626	-16.191875	-32.388126
488.061005	193.979996	1392.568970	-67.528122	-48.028751	-4.064375
199.897003	316.346008	1390.433960	-2.655625	-26.368126	-39.908749
254.553009	75.091003	986.247986	27.173124	-14.336875	-60.064377
138.287003	81.923004	694.729004	-29.303749	-39.436249	-27.488125
53.253002	12.627000	777.932983	-45.902500	-44.756248	-11.379375
356.545013	793.427002	1855.437012	-52.565624	-8.872500	-20.566875
205.264999	158.722000	1110.200073	0.568750	-45.836876	-18.742500
261.994995	161.955002	994.239014	-18.081875	-31.692499	-24.276875
218.319000	155.123001	1093.181030	-31.591875	-30.200624	-26.844999
230.091995	103.151001	1064.999023	-30.747499	-31.430000	-29.163750
216.977005	98.209999	1055.483032	-39.449375	-26.722500	-30.546249
166.285995	92.659004	1033.035034	-25.934999	-26.306875	-33.713749
304.756012	171.897995	1011.319031	-33.661251	-23.226875	-24.850000
226.309998	104.676003	1042.734009	-26.328751	-27.650000	-26.853750
216.367004	95.586998	1044.990967	-25.090626	-28.236250	-28.962500
222.100998	100.345001	1040.416016	-25.838751	-27.842501	-29.150625
223.260010	96.380005	1041.148071	-25.847500	-27.754999	-29.032499
222.893997	98.576004	1045.234985	-25.860624	-27.715626	-29.076250
219.234009	96.136002	1039.256958	-26.490625	-27.868750	-29.172501
224.175003	102.785004	1040.660034	-25.795000	-27.794374	-29.089375
223.016006	98.454002	1041.635986	-25.672501	-27.671875	-29.006250
225.639008	98.697998	1040.050049	-25.943750	-27.623751	-29.071875
225.334000	92.903000	1043.282959	-25.996250	-27.702499	-29.150625
221.063995	97.051003	1037.427002	-25.869375	-27.667500	-29.084999
225.639008	101.565002	1042.795044	-25.554375	-27.763750	-29.124374
226.432007	96.136002	1039.927979	-25.628750	-27.741875	-29.041250
225.944000	96.624001	1041.635986	-25.742500	-27.693750	-29.058750
222.162003	95.403999	1044.380981	-25.755625	-27.711250	-29.001875
225.516998	95.891998	1039.013062	-25.545626	-27.650000	-29.115625
227.591003	97.356003	1042.185059	-25.628750	-27.724375	-29.102501
219.783005	98.087997	1042.245972	-26.022499	-27.728750	-29.115625
228.322998	96.258003	1042.245972	-25.615625	-27.575624	-29.036875
221.003006	92.232002	1038.952026	-25.615625	-27.575624	-29.036875
221.003006	92.232002	1043.893066	-25.379375	-27.671875	-29.084999
226.859009	98.881004	1043.893066	-25.593750	-27.886250	-29.163750
224.846008	100.284004	1042.612061	-26.096874	-27.930000	-29.102501
224.968002	99.307999	1039.927979	-25.755625	-27.825001	-29.111250
218.684998	100.162003	1043.039062	-25.707500	-27.825001	-29.163750
230.580002	100.528000	1040.537964	-25.843124	-27.807501	-29.067499
228.750000	97.478004	1042.489990	-25.996250	-27.684999	-28.936251
222.100998	99.735001	1041.635986	-25.943750	-27.737499	-29.076250
219.356003	101.138000	1045.479004	-25.480000	-27.763750	-29.058750
227.102997	96.258003	1044.442017	-25.405624	-27.619375	-29.098125
223.382004	94.793999	1043.466064	-25.558750	-27.737499	-29.111250
224.479996	99.369003	1039.683960	-25.541250	-27.606251	-29.023750
219.112000	92.537003	1042.672974	-25.895624	-27.899376	-29.023750
225.029007	96.929001	1041.270020	-25.956875	-27.860001	-29.023750
223.869995	97.112000	1042.368042	-25.729376	-27.663124	-29.290625
224.846008	94.183998	1038.829956	-25.414375	-27.553749	-29.120001
225.822006	96.258003	1044.015015	-25.816875	-27.737499	-29.198750
222.040009	100.589005	1042.368042	-25.895624	-27.912500	-29.111250
223.138000	98.209999	1042.855957	-25.917500	-27.825001	-28.975624
225.456009	97.966003	1040.660034	-25.633125	-27.715626	-29.150625
222.040009	96.014000	1042.245972	-25.392500	-27.737499	-29.185625
225.395004	93.208000	1041.514038	-25.707500	-27.825001	-29.111250
223.626007	101.687004	1037.975952	-25.878124	-27.737499	-29.111250
227.712997	92.903000	1043.526978	-26.022499	-27.768126	-29.006250
224.846008	101.687004	1041.026001	-26.044374	-27.768126	-29.124374
223.503998	95.465004	1040.660034	-25.694374	-27.807501	-29.115625
228.445007	93.818001	1042.978027	-25.886875	-27.820625	-29.058750
225.456009	98.637001	1043.343994	-25.523750	-27.584375	-29.141874
227.529999	100.284004	1042.612061	-26.044374	-27.772499	-29.067499
227.042007	98.087997	1038.829956	-25.891251	-27.794374	-29.076250
224.113998	96.989998	1042.307007	-25.283125	-27.754999	-29.111250
221.063995	98.209999	1042.489990	-25.462500	-27.934376	-29.080626
221.552002	98.454002	1043.953979	-25.746876	-27.842501	-29.185625
224.785004	103.028999	1040.171997	-25.593750	-27.750626	-29.076250
223.138000	96.806999	1037.122070	-25.882500	-27.829374	-29.080626
224.846008	96.258003	1046.333008	-25.786249	-27.781250	-29.133125
225.822006	101.565002	1044.686035	-25.834375	-27.890625	-29.229376
223.992004	94.488998	1043.953979	-25.838751	-27.956249	-29.001875
223.626007	94.672005	1042.001953	-25.856251	-27.750626	-29.106874
223.260010	93.940002	1041.026001	-25.913124	-27.623751	-29.058750
222.528000	97.661003	1043.099976	-25.900000	-27.650000	-29.063126
218.867996	97.966003	1042.489990	-25.860624	-27.794374	-29.054375
225.029007	94.183998	1042.245972	-26.123125	-27.873125	-29.076250
223.503998	95.770004	1040.050049	-25.309376	-27.593124	-29.006250
227.835007	94.306000	1044.015015	-26.057501	-27.772499	-29.141874
225.944000	95.038002	1044.076050	-26.044374	-27.776875	-29.124374
224.236008	99.369003	1038.159058	-25.650625	-27.684999	-29.277500
222.406006	95.526001	1039.683960	-25.703125	-27.636875	-29.023750
221.796005	92.110001	1040.416016	-25.733749	-27.798750	-29.115625
225.761002	97.539001	1042.612061	-26.035625	-27.899376	-29.093750
223.138000	95.648003	1039.683960	-25.624374	-27.803125	-29.054375
224.479996	98.637001	1042.001953	-25.602501	-27.741875	-29.098125
223.503998	97.356003	1041.514038	-26.061874	-27.820625	-29.133125
228.201004	97.112000	1039.562012	-25.952499	-27.671875	-29.115625
226.066010	97.966003	1039.073975	-25.952499	-27.750626	-29.102501
219.539001	102.053001	1041.818970	-25.952499	-27.807501	-29.063126
221.430008	96.319000	1044.015015	-25.480000	-27.680626	-29.054375
223.931000	100.223000	1042.734009	-26.022499	-27.724375	-29.058750
224.602005	96.258003	1037.244019	-25.620001	-27.719999	-29.238125
224.723999	95.648003	1038.219971	-25.900000	-27.584375	-29.023750
224.358002	97.783005	1039.073975	-25.637501	-27.663124	-29.028126
223.992004	98.697998	1039.562012	-25.812500	-27.689375	-29.128750
219.600006	96.989998	1040.171997	-26.118750	-27.698126	-29.203125
225.639008	96.136002	1043.526978	-25.703125	-27.706875	-29.124374
224.846008	93.208000	1041.635986	-25.541250	-27.715626	-29.133125
224.479996	98.271004	1040.171997	-25.825624	-27.680626	-29.045626
223.626007	95.403999	1041.391968	-25.956875	-27.610624	-29.176874
228.932999	100.100998	1040.781982	-25.615625	-27.435625	-29.032499
219.660995	97.722000	1043.770996	-25.497499	-27.588751	-29.155001
221.735001	97.599998	1038.098022	-25.698750	-27.816250	-29.120001
222.772003	97.844002	1040.294067	-25.549999	-27.794374	-29.001875
218.380005	96.380005	1039.317993	-25.545626	-27.790001	-29.071875
226.615005	93.330002	1042.185059	-25.633125	-27.838125	-29.207500
