AccX[mg]	AccY[mg]	AccZ[mg]	GyrX[dps]	GyrY[dps]	GyrZ[dps]	
72.101997	-48.556000	1019.005005	0.883750	-2.235625	-3.088750
19.703001	-35.624001	992.286987	0.883750	-2.235625	0.000000
82.959999	-29.585001	975.390015	-1.561875	-43.207500	-26.324375
121.817001	-33.672001	1010.953003	-23.760626	-59.460625	-33.560623
85.400002	-80.641998	902.434021	-12.267500	32.361874	-10.084375
-16.165001	-110.898003	1073.966064	15.281875	72.511253	12.171250
-0.610000	-19.153999	966.239990	37.375626	32.029373	19.289375
88.999001	8.967000	982.466003	-42.096249	9.301250	34.580002
-38.430000	-81.984001	1006.439026	-43.238125	28.139999	59.202499
-5.124000	-79.361000	1005.890015	-7.288750	26.547501	76.947502
-23.180000	-65.636002	1008.390991	27.334999	-0.205625	72.716873
-20.862000	42.456001	1035.414062	14.923125	-57.837502	51.082500
66.673004	-50.874001	1049.932007	2.782500	-76.947502	22.504999
115.960999	-58.621002	1007.903015	1.631875	-37.988125	-3.395000
106.567001	-31.964001	1009.549988	-6.772500	7.280000	-20.028749
76.250000	-38.491001	1013.880981	-18.908751	34.076874	-31.364374
38.247002	-45.811001	1031.021973	-25.952499	47.381248	-38.451874
45.079002	-46.177002	1023.335999	42.428749	10.259375	-30.913750
11.590000	-5.063000	1016.320984	27.330626	9.038750	-21.511875
28.914000	-6.954000	1004.731018	-7.625625	3.959375	-11.055625
27.816000	-26.108000	1018.822021	-28.721874	-4.580625	2.025625
24.521999	-71.492004	1035.901978	-10.132500	-2.961875	16.174376
7.808000	-26.108000	1018.212036	16.738750	-3.351250	25.186874
10.675000	-15.250000	1012.294983	11.090625	3.215625	25.103750
-14.945000	-79.300003	1010.526001	-9.209375	6.269375	17.753750
19.580999	-46.848000	1019.981018	-13.125000	-2.918125	8.225000
86.863998	139.873001	1005.707031	8.032500	-11.755625	-5.551875
-11.102000	-141.154007	1052.859985	5.061875	7.472500	-6.895000
106.201004	-74.847000	1075.613037	4.593750	37.095627	-0.122500
205.753006	-242.231003	1043.709961	11.379375	15.496250	-1.981875
307.744995	-61.243999	963.190002	23.428125	-29.736876	-68.293747
-56.669003	142.923004	998.143005	-3.023125	15.570625	-80.066872
-133.102005	82.472000	1012.843994	-14.087500	55.759377	-29.863750
7.808000	-89.181999	-351.360016	23.244375	32.278751	20.116249
-124.623001	-35.929001	943.975037	18.025000	-54.245625	-2.113125
-167.994003	-130.479004	928.541992	-15.251250	1.338750	-21.586250
62.586002	-23.668001	1042.428955	-13.632500	-10.364375	-29.977501
67.039001	124.013000	907.375000	4.825625	-12.748750	-32.309376
-53.131001	148.779007	1219.145996	-9.896250	-6.461875	-14.245000
-40.748001	47.153000	970.388000	8.452500	50.754375	-0.008750
-91.256004	110.898003	969.900024	18.340000	47.061874	7.726250
-160.979004	-5.551000	1169.979980	4.598125	23.515625	11.449375
-37.088001	74.054001	982.221985	10.058125	41.330624	4.007500
-129.930008	116.875999	1017.663025	19.280624	-31.276875	27.199375
-64.598999	162.138000	1454.789062	60.943748	-102.357498	67.834373
297.497009	77.958000	820.937988	49.682499	-39.983124	51.244373
97.966003	227.102997	1025.714966	19.302500	17.110624	30.524376
-0.305000	157.563004	1190.171021	-18.405624	10.968125	26.932501
271.755005	234.117996	918.111023	1.124375	-0.949375	6.921250
259.677002	297.436005	850.767029	-5.236875	-14.507500	1.706250
96.684998	165.737000	1021.018005	-55.081249	38.981251	5.376875
164.516998	137.494003	900.177002	-33.140625	6.593125	-3.556875
121.572998	189.649002	815.020996	-38.294376	-27.580000	11.156250
110.715004	81.129997	893.283997	-37.712502	11.716250	21.008751
63.562000	6.527000	855.890991	-24.412500	59.950626	12.871250
-29.036001	-42.090000	1002.413025	7.516250	49.433125	3.893750
-121.634003	-113.521004	1030.656006	-7.472500	84.354378	-8.185625
-196.664001	0.915000	950.989990	-1.719375	114.589996	-11.405625
-143.777008	41.846001	1183.765991	1.001875	52.206875	-4.873750
-270.108002	-57.645000	992.958008	0.437500	-0.651875	3.049375
-251.259003	-59.170002	870.591980	7.441875	-49.691250	7.131250
-330.619995	-118.645004	965.264038	5.442500	-81.414375	-1.124375
-160.307999	-10.980000	1109.285034	25.003124	-103.293747	-27.706875
-81.313004	32.085999	1030.777954	19.809999	-86.200623	-9.353750
63.013000	116.327003	1047.248047	-9.730000	-64.566254	20.330626
-35.563000	-122.670998	1295.884033	-21.139999	-10.806250	49.743752
63.257000	-66.794998	981.367981	-43.610001	66.044998	43.194374
-29.646000	-49.288002	1035.353027	-12.162500	6.982500	22.855000
155.306000	-25.315001	1039.379028	-5.665625	22.124374	24.657499
-67.527000	-26.108000	897.432007	-14.385000	49.048126	1.876875
-82.716003	-44.652000	975.755981	29.881250	19.875626	-17.233126
54.900002	25.681000	989.176025	26.210625	-29.605625	-29.496250
51.972000	58.560001	1152.717041	43.955624	-49.354374	-18.475624
6.832000	34.952999	929.335022	-9.852500	58.576874	31.303125
-107.542999	-25.132000	937.265015	-2.541875	102.090622	-4.532500
-109.433998	36.966000	1171.749023	19.394375	13.746250	-10.101875
-164.882996	-56.973999	1153.998047	28.297501	-59.451874	-15.111250
-34.221001	119.621002	1095.987061	0.923125	-55.706875	-50.894375
-0.183000	181.658005	993.629028	-13.540625	-10.723125	-52.093124
68.502998	123.403000	1160.952026	-24.298750	7.385000	-33.976250
80.886002	-81.008003	953.125000	-23.843750	14.455000	-26.844999
43.615002	-73.871002	905.484009	-27.190624	-41.702499	-38.889374
221.552002	-78.263000	975.268005	26.394375	-59.486874	-30.502501
80.276001	-45.383999	1084.336060	-5.477500	8.067500	6.234375
67.039001	-133.529007	1122.217041	0.542500	-32.361874	6.571250
71.308998	-120.779999	915.244019	-8.806875	-57.045624	-23.196251
347.334015	-39.101002	878.827026	-9.813125	-43.041248	-37.099998
178.363998	-58.316002	1001.010010	-14.100625	37.668751	-16.730000
189.710007	-140.300003	952.210022	-8.172500	56.879375	-9.143750
-10.248000	-76.615997	1087.508057	16.970625	34.610626	9.638125
60.573002	-44.896000	985.333008	57.084999	22.806875	25.707500
128.283005	-88.145004	1109.223999	30.581249	27.746250	35.170624
-7.869000	40.382000	807.030029	24.150000	64.273125	28.853125
28.853001	111.081001	1053.104004	-38.753750	-44.524376	17.373125
23.180000	-7.869000	1071.587036	-35.319374	-28.301874	30.100000
-47.519001	81.618004	941.046997	-23.170000	-13.693750	31.819374
0.610000	175.557999	1004.914001	-33.298126	-5.490625	19.748751
-82.532997	122.305000	952.942017	-19.923750	-7.288750	8.347500
69.052002	83.509003	1056.458984	-25.055626	-11.663750	17.845625
-14.701000	-7.930000	970.205017	-8.592500	-2.835000	12.958750
107.116005	-81.923004	1185.473999	-4.598125	3.797500	11.265625
-16.469999	-129.807999	975.085022	-7.288750	14.818125	11.340000
38.979000	-146.339005	989.481018	21.966875	14.030625	2.581250
57.645000	-131.272003	929.395996	11.620000	-4.173750	10.701250
-13.481000	-153.171005	836.065979	-6.072500	-13.868750	-6.457500
21.899000	-113.887001	1043.161011	10.955000	9.655625	-5.722500
59.475002	-133.468002	984.967041	21.647499	15.946875	3.071250
-102.906998	-154.147003	1080.980957	2.073750	32.996250	7.236250
46.970001	-55.083000	1017.480042	11.493125	17.893749	12.201875
7.015000	-61.549000	1042.672974	19.591249	9.388750	14.275625
11.041000	-40.320999	1110.626953	5.547500	16.585625	6.531875
58.621002	28.975000	906.765015	0.756875	1.701875	28.070000
-138.531006	31.781000	951.600037	-13.405000	14.218750	17.228750
-5.185000	137.371994	983.564026	-3.605000	30.196251	11.808125
-62.281002	117.852005	965.264038	-7.078750	-14.748125	14.485625
-125.050003	78.995003	1083.542969	1.312500	-44.156876	-5.735625
26.474001	172.020004	1118.557007	-7.472500	-34.698124	-5.140625
28.426001	143.654999	1064.389038	-7.437500	-3.040625	0.695625
-24.583000	140.787994	973.804016	3.080000	18.978750	2.633750
21.716000	48.799999	1034.193970	-0.678125	17.959375	6.715625
-11.224000	-22.875000	1091.534058	-2.795625	14.573125	-8.666875
-149.632996	-53.741001	973.742981	12.967500	4.427500	-21.122499
-2.013000	-24.156000	1085.006958	0.376250	4.375000	-20.881874
-27.999001	-20.069000	904.691040	-12.543125	18.046875	-18.278749
-107.848000	-134.016998	1000.827026	-3.815000	-9.025625	-29.951250
23.241001	-91.744003	1059.936035	12.639375	-32.781876	-27.203751
-38.307999	-77.104004	909.449036	9.948750	-15.124375	-15.925000
-57.340000	-89.121002	981.429016	17.473749	-28.153126	-26.337500
44.225002	-32.513000	995.885986	13.601875	-52.683750	-15.338750
3.599000	-28.365000	1001.315002	11.913125	-27.654375	-7.161875
25.802999	20.069000	1047.125977	3.539375	2.638125	4.974375
5.856000	39.101002	1014.796021	-7.577500	-1.093750	8.028125
11.529000	4.636000	1031.631958	-16.139376	9.743125	5.560625
21.472000	37.088001	1035.474976	-10.880625	7.140000	6.164375
-2.989000	17.202000	1033.949951	-5.481875	3.290000	14.113750
-16.165001	24.705000	990.822998	-3.801875	16.905001	11.996250
-41.053001	-15.067000	1083.115967	1.815625	-7.196875	1.277500
-21.533001	83.997002	1003.328003	-8.001875	-4.173750	-8.951250
19.886000	34.647999	1069.756958	-12.543125	-15.960000	-12.998125
56.424999	25.559000	1062.925049	-9.686250	-7.122500	-10.390625
85.827003	-37.453999	945.988037	-16.196251	14.367500	9.581250
39.771999	-61.549000	920.916992	-13.658750	-7.490000	23.629375
9.394000	-94.793999	931.713989	-9.913750	-14.555625	23.918125
53.192001	-61.854000	929.395996	0.135625	-7.021875	16.065001
22.691999	-85.705002	962.885010	3.950625	-6.348125	7.826875
8.662000	-67.771004	982.283020	3.097500	-15.723750	-5.013750
62.403000	-52.948002	1000.827026	2.590000	-18.996250	-10.705625
38.491001	-8.540000	984.906006	5.171250	-15.636250	-13.090000
89.487000	-59.535999	1101.110962	5.350625	7.227500	-10.049375
61.305000	-57.218002	1060.424072	-4.410000	20.960625	-5.626250
48.739002	-75.396004	1038.890991	-11.908750	-4.882500	2.581250
45.872002	-71.431000	1021.384033	-8.120000	9.117500	4.086250
13.542000	-60.633999	975.145996	-6.260625	13.177500	4.641875
7.869000	-98.271004	952.148987	-3.854375	2.318750	4.226250
15.433001	-116.998001	998.570007	-7.800625	-10.364375	0.551250
32.695999	-74.054001	992.043030	-2.266250	-20.076876	-6.768125
104.249001	-75.029999	1090.863037	3.898125	-11.353125	-3.850000
75.517998	-79.300003	1074.576050	4.882500	5.153750	2.485000
49.348999	-63.074001	1024.067993	5.941250	11.322500	4.703125
53.436001	-35.685001	977.281006	10.928750	19.368126	10.272500
16.165001	-67.344002	997.411011	4.589375	13.405000	4.830000
-3.660000	-46.177002	983.197998	0.100625	-1.570625	-2.340625
22.326000	-51.789001	1019.737000	3.123750	-10.591875	-7.564375
34.038002	-42.028999	996.679016	8.592500	-5.285000	-10.158750
50.507999	-19.215000	1005.950989	9.782500	-5.241250	-7.840000
38.003002	-9.577000	1019.309998	3.893750	11.440625	2.038750
6.710000	-30.195000	986.614014	-0.805000	10.841250	2.970625
23.180000	-20.007999	1021.811035	1.929375	0.927500	4.913125
17.263000	-66.306999	1035.901978	2.725625	2.502500	8.093750
-5.063000	-41.541000	971.486023	-4.344375	8.929375	-1.010625
44.834999	-36.783001	947.635010	-5.880000	2.358125	0.188125
3.233000	-55.510002	1018.395020	-4.571875	5.127500	5.289375
-21.410999	-39.894001	982.588013	1.343125	8.601250	3.819375
237.290009	23.180000	904.507996	3.071250	19.298124	5.569375
-60.633999	-58.072002	1047.065063	-4.541250	-1.841875	4.843125
-5.551000	-27.572001	973.742981	2.839375	-17.351250	-1.400000
10.248000	-54.716999	1027.545044	6.654375	6.168750	-2.935625
-7.442000	-75.274002	996.739990	3.495625	6.076875	-4.322500
14.701000	-30.195000	1046.638062	2.804375	-0.070000	-5.114375
-15.860001	1.708000	966.117981	-0.315000	18.646250	3.036250
-23.973000	-19.153999	1040.660034	-5.661250	11.309375	3.456250
-53.802002	-35.257999	1014.979004	-9.471875	17.176250	8.299375
-73.078003	-11.529000	983.442017	1.614375	14.511875	2.668750
-58.926003	4.026000	1012.966003	1.973125	-5.149375	-0.875000
-38.857002	4.148000	1082.688965	-2.695000	-19.083750	-5.223750
12.261000	-6.405000	1064.937988	-2.953125	-1.203125	0.039375
-30.927000	-25.498001	1019.798035	-3.381875	5.429375	5.998125
-21.045000	-40.015999	968.252991	-5.442500	-6.356875	5.521250
-61.183002	-60.512001	994.299988	2.209375	1.316875	1.133125
-12.261000	-40.931000	988.505005	1.098125	-5.363750	-2.795625
-29.768000	-46.237999	994.483032	3.626875	-4.326875	-4.550000
-21.655001	-46.360001	1044.625000	3.049375	0.791875	-3.753750
-29.341000	-32.574001	1023.153015	-0.704375	0.192500	-3.618125
-30.988001	-37.453999	1028.155029	0.043750	1.855000	-1.885625
-38.003002	-36.844002	1032.546997	0.835625	2.091250	-1.098125
-29.585001	-29.463001	1011.075012	0.857500	-0.555625	-2.559375
-23.607000	-21.045000	1019.859009	0.822500	-1.382500	-2.235625
-36.478001	5.185000	992.226013	-0.625625	2.970625	-2.791250
-17.995001	-30.743999	1029.863037	-1.623125	-1.001875	-1.102500
-47.458000	-69.845001	1034.133057	-2.156875	-1.260000	2.506875
-82.959999	-198.128006	963.251038	-3.858750	-2.970625	7.013125
-43.615002	-355.386017	999.119019	1.631875	-2.489375	4.589375
-99.857002	-492.270020	919.270020	-5.600000	1.128750	24.001249
-104.554001	-643.611023	874.984009	-16.078125	-11.808125	34.790001
33.428001	-596.458008	1045.906006	-14.266875	-15.728125	47.355000
-2.989000	-451.460999	970.022034	8.395625	15.855000	68.162498
79.056000	32.818001	1056.214966	20.326250	-17.469376	58.406250
114.497002	97.294998	1094.523071	4.296250	-4.401250	55.623749
34.038002	195.382996	1003.816040	-22.531250	-9.043125	54.075001
135.968994	117.486000	1034.316040	-11.423125	-30.961876	80.010002
102.113998	-33.000999	1075.003052	9.366875	-18.650625	69.623749
42.334000	-4.148000	1092.998047	24.841249	-17.600624	46.366249
263.946991	46.909000	1097.938965	-4.554375	-3.933125	53.252499
190.503006	120.902000	1030.656006	4.060000	12.744375	44.008125
143.227997	233.447006	964.531982	4.956875	10.933125	28.485624
162.931000	294.141998	948.549988	3.329375	-13.457500	17.465000
29.158001	179.645004	1084.031006	-6.763750	-15.260000	8.605625
-31.354000	56.730000	1316.258057	-0.586250	-13.746250	6.685000
-24.217001	-31.781000	1487.911987	-8.767500	1.750000	7.721875
5.124000	-46.726002	1424.228027	0.035000	14.122500	-0.017500
-14.396000	36.050999	1373.354004	7.993125	21.551250	6.090000
-25.193001	-3.721000	1260.992065	14.494375	56.686874	7.822500
-11.102000	26.596001	1191.756958	0.647500	49.560001	14.892500
-122.122002	3.965000	1036.145996	-7.892500	44.371250	15.168125
-22.875000	-23.729000	1089.032959	-8.920625	38.749374	16.677500
-16.226000	-19.032000	1046.454956	22.356251	52.110626	14.634375
-63.074001	-34.526001	1057.130005	10.618125	48.120625	6.610625
-126.636002	39.161999	1142.713013	6.260625	57.290627	5.416250
-25.193001	-35.319000	1140.822021	5.197500	69.938751	8.767500
-75.152000	-33.428001	993.629028	2.165625	63.275623	15.763125
-139.445999	-85.827003	851.559998	1.557500	86.970627	9.485000
-122.610001	18.422001	569.374023	-10.298750	80.989998	10.486875
-282.795990	47.945999	464.027008	-12.521250	68.748749	-2.467500
-396.683014	122.487999	377.407013	-13.365625	59.338123	-14.822500
-446.886017	129.990997	390.765991	-14.975625	27.409374	-11.703125
-380.029999	116.448997	704.976990	-17.202499	-7.293125	-6.772500
-502.884003	250.283005	772.931030	14.538125	-10.342500	-19.486250
-428.830017	206.240997	890.905029	35.752499	-29.172501	-31.543751
-328.119019	275.170990	968.192017	30.576876	-32.401249	-36.623123
-363.804016	235.154999	1027.849976	51.909374	-31.066875	-35.258125
-171.837006	160.856995	1014.552002	59.167500	-34.120625	-41.033127
-344.894012	173.727997	971.669006	60.204376	-24.508751	-41.575626
-129.320007	80.398003	985.272034	42.323750	-19.223749	-45.338123
-361.851990	29.646000	954.406006	19.350624	-27.203751	-49.319374
-320.433014	-60.084999	1046.088989	33.372501	-35.945000	-60.689999
-407.662994	-94.428001	1103.978027	35.183750	-39.440624	-58.380001
-219.600006	-198.677002	1121.667969	34.085625	-37.738750	-58.366875
-435.417999	-153.110001	1032.669067	19.836250	-18.554375	-52.241875
-265.106018	-251.076004	1100.256958	19.250000	-8.465625	-45.377499
-387.716003	-191.173996	926.712036	15.404375	-9.800000	-32.908749
-356.606018	-146.888000	844.606018	11.790625	-1.666875	-44.528751
-243.817001	-92.659004	802.820984	-7.910000	-6.663125	-25.974375
-243.268005	-63.074001	631.471985	-19.044374	0.931875	-16.979376
-141.337006	-126.514000	499.162994	-33.648125	11.825625	-17.701250
-214.781006	-159.393005	587.491028	-28.393749	-19.604376	-14.201250
-219.356003	-122.915001	616.221985	-33.162498	-32.143124	-41.155624
-48.556000	-52.764999	753.350037	-18.191250	-67.869377	-47.271873
-29.097000	-156.831009	907.192017	-15.596875	-50.478748	-0.437500
-30.743999	-244.182999	1215.242065	-9.415000	-48.313126	17.911249
-39.101002	-114.862999	1015.772034	-23.852501	-42.349998	11.226250
-35.196999	-70.393997	1211.399048	-38.526249	-51.988125	38.919998
-126.270004	-111.446999	1205.299072	-5.079375	-35.752499	30.620625
-141.276001	-174.582001	1279.657959	-15.408750	-34.208126	10.478125
20.191000	-113.704002	1396.107056	-10.631250	-84.415627	3.675000
-140.178009	-96.075005	1455.032959	1.470000	-23.388750	-6.825000
67.649002	-103.516998	1447.347046	-2.463125	-44.695000	-13.658750
-31.171000	-117.730003	1332.545044	2.887500	2.695000	-1.688750
41.602001	-170.494995	1126.303955	-5.788125	-0.971250	-2.642500
56.730000	-229.787003	968.070007	-4.764375	12.363750	4.983125
-31.171000	-251.869003	902.556030	6.094375	12.368125	-5.070625
92.110001	-228.688995	948.062012	16.563749	5.565000	-17.281250
15.616000	-288.895996	1026.141968	18.458124	43.719376	-13.046250
-12.261000	-281.759003	987.528992	18.720625	45.075626	-21.665001
86.315002	-318.359009	937.447998	9.086875	7.052500	25.838751
-39.406002	-351.847992	953.552002	20.881874	16.633751	42.078751
15.677000	-279.868011	867.603027	18.952499	-1.885625	51.686249
-40.320999	-291.274994	1063.291016	4.869375	-13.676250	50.531250
-44.529999	-156.281998	942.755005	0.870625	0.126875	31.635626
188.001999	-112.606003	1222.562012	-3.508750	-5.845000	27.422501
111.996002	-113.094002	1228.357056	-8.220625	-9.861250	41.921249
130.113007	-16.165001	1197.430054	-10.084375	25.414375	34.378750
116.388000	46.360001	1092.327026	-11.130000	16.725624	32.038124
72.223999	337.817993	1067.682983	-8.128750	14.406875	20.374374
-79.117004	360.815002	814.898987	-8.688750	23.086876	38.049374
-104.737000	239.669006	967.460022	-6.794375	-6.208125	35.328125
-78.445999	195.444000	944.341003	1.640625	-1.758750	18.291876
-69.845001	179.339996	983.137024	12.464375	-8.540000	17.955000
-90.402000	36.112000	1182.180054	9.323125	-0.866250	20.951876
-212.402008	17.202000	1144.786987	-1.723750	11.029375	14.161875
-178.912994	-71.675003	1336.204956	0.603750	2.366875	8.128750
-246.745010	-63.623001	1447.103027	-3.701250	5.967500	19.276251
-236.313995	-61.061001	1334.192017	-4.550000	27.251875	19.788124
-158.966003	-77.104004	1377.989990	8.185625	33.175625	26.967501
-121.084999	-46.177002	1339.499023	9.795625	68.368126	35.367500
-168.238007	-61.976002	1198.527954	3.211250	69.680626	39.571877
-152.622009	-77.835999	1162.660034	0.507500	84.783127	16.568125
-145.485001	-46.116001	984.113037	-6.790000	70.122498	12.053125
-135.542007	30.988001	914.817017	-8.216250	71.185623	15.351875
-155.550003	33.793999	626.286987	-6.365625	91.013123	27.168751
-261.019012	-30.378000	646.661011	-10.128125	94.810623	20.969376
-273.218994	94.793999	467.199005	-14.262500	63.665001	11.414375
-440.968994	87.291000	328.302002	-6.107500	45.088749	5.271875
-406.076996	154.878998	425.718994	-3.031875	40.661251	4.830000
-475.860992	125.477005	563.762024	-6.457500	2.340625	4.256875
-503.433014	193.919006	604.815002	-3.526250	-15.658125	-4.248125
-505.324005	207.400009	705.830994	-2.038750	-24.088751	-8.719375
-511.851013	236.313995	798.734009	6.203750	-21.070000	-6.969375
-477.569000	234.850006	831.064026	10.828125	-32.567501	-11.440625
-490.378998	165.492996	958.981018	9.034375	-48.488125	-16.480625
-433.588013	202.947006	961.665039	16.463125	-50.299374	-28.525000
-485.377014	138.104004	1050.907959	33.420624	-57.859375	-43.150623
-279.684998	144.020996	1110.810059	49.796249	-30.681875	-44.760624
-358.558014	-5.917000	1078.479980	39.803749	-13.041875	-38.845627
-240.645004	23.546000	917.744995	48.216873	-20.632500	-59.040627
-306.585999	-78.750999	958.798035	59.018749	-29.526875	-52.775623
-242.292007	-32.695999	1064.083984	51.651249	-18.300625	-40.783749
-380.395996	-73.261002	846.679993	34.925625	-21.245001	-32.821251
-428.585999	-57.340000	947.025024	21.236250	-19.578125	-47.669998
-405.222992	-132.979996	978.562012	14.459375	-27.619375	-43.631874
-442.554993	-137.250000	1039.196045	14.144375	-23.528749	-29.903126
-366.854004	-185.318008	1032.912964	18.309376	-15.929375	-37.410625
-344.833008	-113.887001	943.609009	2.559375	-16.769375	-35.791874
-292.983002	9.028000	633.851013	-5.219375	-10.386250	-27.138124
-184.220001	-54.046001	623.603027	-22.316875	-27.085625	-16.231251
-133.651001	-31.781000	611.525024	-28.752501	-31.508751	1.146250
-178.608002	6.161000	582.976990	-23.760626	-31.613750	-7.358750
-103.944000	-136.395996	787.022034	-18.475624	-35.586250	-10.241875
-84.362999	-3.477000	875.716003	-21.533751	-38.854374	-7.166250
-57.827999	-1.952000	723.398987	-39.348751	-54.705002	-8.789375
71.553001	-212.462997	1012.905029	-58.690624	-42.472500	7.441875
-175.557999	-27.938000	808.616028	-58.038750	-38.018749	24.084375
34.709000	-246.928009	1179.984009	-31.219999	-51.900623	-12.700625
-89.731003	-109.556000	1366.400024	-22.924999	-53.370625	-11.453750
-23.118999	-218.257996	1535.858032	-8.111250	-26.175625	-20.881874
-132.492004	-97.844002	1201.273071	-25.125626	-30.909374	-12.438125
-24.888000	-211.365005	1327.665039	-5.761875	-31.526251	-13.650000
-23.546000	-249.673004	1292.712036	3.981250	-9.065000	-3.058125
-13.725000	-228.079010	1231.468018	7.853125	-2.279375	4.313750
-59.779999	-231.311996	1081.103027	25.305000	10.473750	6.838125
26.291000	-212.707001	998.143005	19.101250	1.045625	7.284375
11.834001	-271.266998	935.984009	9.003750	-0.875000	9.681875
43.066002	-329.338989	956.785034	5.595625	-5.490625	11.204375
-10.858000	-363.194000	957.333984	28.266874	-2.970625	29.658125
45.993999	-338.489014	1003.083984	27.466249	-2.769375	36.470001
0.732000	-294.264008	1058.776978	25.436251	15.649375	47.311249
-66.917000	-201.178009	1006.804993	27.545000	1.150625	34.549374
125.111000	-176.595001	1093.302979	9.808750	-9.450000	26.446875
78.812004	-69.174004	952.454041	0.035000	-6.505625	29.028126
98.637001	-95.343002	1100.379028	0.157500	-3.736250	22.579374
227.102997	-6.344000	988.444031	-9.598750	2.454375	28.700001
161.893997	-35.868000	1022.908997	-9.161250	18.847500	45.937500
214.415009	20.862000	914.207031	-25.965626	16.988125	26.250000
78.628998	66.124001	1024.190063	-10.933125	-8.601250	20.125000
67.039001	144.203995	1045.600952	-0.901250	24.027500	16.734375
67.466003	126.026001	882.364990	-4.563125	21.056875	20.422501
-53.862999	135.359009	995.093018	10.985625	-3.495625	20.575624
-5.978000	133.102005	1037.000000	7.196875	-4.344375	7.240625
-25.254000	66.368004	1109.468018	-2.970625	-17.469376	20.794374
-114.862999	-35.685001	1290.881958	3.863125	-7.761250	18.659374
-72.346001	-50.020000	1338.706055	5.910625	-0.573125	8.833125
-98.027000	-51.484001	1386.530029	2.161250	-33.013748	14.927500
-56.608002	-107.420998	1200.723999	-19.311251	42.341251	26.385626
-142.923004	-74.664001	1144.299072	-8.964375	35.765625	18.733749
-92.170998	-111.141998	1223.904053	5.411875	29.802500	13.470625
41.541000	-139.507004	1256.478027	21.603750	29.308125	31.211250
-28.243000	-180.132996	1260.931030	30.108749	78.732498	39.401249
93.818001	-126.941002	1210.118042	21.415625	91.315002	35.730625
-32.818001	-96.380005	1077.321045	18.580626	62.339375	40.656876
29.524000	-95.648003	922.197998	4.860625	70.196877	24.701250
-35.014000	55.510002	721.630005	0.070000	41.544998	21.953751
-150.487000	-29.341000	383.201996	6.243125	72.931252	35.262501
-277.428009	190.259003	448.411011	-14.647500	42.721874	7.280000
-304.572998	127.001999	490.013000	-13.269375	37.834999	14.411250
-405.101013	202.886002	546.682007	-4.239375	3.202500	0.441875
-343.186005	189.222000	632.387024	5.700625	-2.590000	-12.088125
-343.552002	173.972000	745.725037	-1.338750	-10.456250	-9.891875
-422.119995	228.688995	825.208008	4.116875	-19.328751	-18.510626
-276.147003	147.253998	978.684021	8.124375	-23.485001	-24.828125
-341.356018	116.144005	1059.143066	8.767500	-41.825001	-23.366875
-231.800003	77.897003	1186.389038	23.909374	-36.023750	-27.326250
-278.830994	135.542007	1155.401001	43.216251	-22.443750	-15.636250
-119.133003	124.745003	1075.552002	55.641251	-29.041250	-41.466251
-221.490997	-5.673000	1035.109009	47.827499	-37.541874	-61.683125
-143.837997	-66.001999	1122.094971	59.080002	-17.749374	-47.858124
-449.143005	-294.080994	1088.118042	58.909374	-19.376875	-44.275002
-345.931000	-72.895004	1135.576050	9.292500	-6.527500	-54.814377
-302.925995	-128.893005	1021.627991	-4.213125	11.099375	-47.731251
-425.291992	-45.567001	888.098999	23.528749	12.420625	-47.416248
-289.261993	-26.291000	734.684021	27.142500	12.726875	-41.361252
-222.955002	-128.527008	663.375000	-8.496250	-2.498125	-30.638124
-218.014008	-32.574001	532.895996	-56.910000	-19.123125	-17.941875
-113.094002	56.364002	547.901978	-38.036251	-29.426250	-29.986250
-108.519005	-3.904000	588.893982	-10.823750	-40.009377	-31.661875
-10.553000	-61.792999	890.051025	8.015000	-32.781876	-39.860626
-2.379000	-25.681000	795.317993	-4.256875	-21.498751	-25.059999
-88.145004	-51.910999	771.223022	-30.594376	-38.832500	-6.741875
-42.090000	-81.984001	977.647034	-38.434376	-52.692501	5.547500
-61.610001	-299.144012	1176.812012	-28.153126	-61.770626	4.917500
-221.857010	-193.979996	1422.641968	-19.888750	-65.988129	-38.325001
82.716003	-24.034000	1398.546997	37.874374	-75.875626	-63.940624
141.214996	23.973000	1764.302979	17.823750	-21.336876	-1.806875
36.295002	39.894001	1317.416992	-8.938125	1.513750	22.649376
-44.285999	7.686000	1053.469971	-1.863750	11.440625	34.164375
-96.929001	1.403000	1020.286011	1.338750	8.916250	20.995625
27.205999	-69.600998	1011.197021	-12.429375	-6.203750	10.416875
74.054001	-132.248001	1022.481995	-10.211250	-4.138750	7.393750
42.700001	-189.283005	1009.976990	-4.550000	9.616250	-0.315000
160.003006	-234.362000	1032.791016	-0.691250	0.770000	-2.401875
93.085999	-278.891998	941.229980	9.673125	-1.697500	13.623750
65.758003	-292.860992	974.048035	-2.375625	-5.276250	13.641250
-24.095001	-256.139008	863.028015	4.633125	7.210000	33.263126
-27.694000	-246.623001	1059.570068	8.478750	11.838750	34.129375
186.781998	-197.091003	1075.674072	-2.235625	-1.203125	44.830624
50.081001	-139.811996	1184.864014	-9.432500	23.664375	49.205624
164.761002	-219.356003	1170.223999	-53.423126	36.076248	36.872501
197.395996	-59.963001	922.686035	-87.403748	-7.175000	43.684376
54.167999	35.746002	795.927979	-33.543125	-7.997500	31.036249
180.499008	152.072998	1028.582031	-9.546250	-19.376875	4.878125
117.730003	226.066010	1040.050049	-6.702500	-52.919998	6.689375
64.355003	104.614998	1098.122070	39.108124	8.255625	21.498751
147.436996	110.105003	1017.480042	22.434999	4.305000	23.340626
-40.382000	120.658005	1033.828003	25.125626	3.281250	15.610000
79.666000	76.920998	1225.672974	16.922501	-0.980000	8.750000
-4.331000	23.729000	1178.276001	9.458750	-11.948125	16.393126
9.760000	-33.367001	1308.877075	27.308750	11.812500	15.802500
-3.538000	-56.059002	1299.848999	-7.332500	22.946875	23.270624
-43.493000	-62.890999	1351.088989	-1.815625	-29.019375	35.770000
102.175003	-144.082001	1309.364990	2.121875	21.581875	25.361876
-5.856000	-85.888000	1241.776978	-15.106875	32.598125	21.424376
2.623000	-80.520004	1171.870972	5.446875	48.846874	18.138750
96.014000	-124.623001	1144.421021	-3.386250	54.416248	34.776875
27.023001	-112.362000	989.541992	20.505625	38.596249	49.778751
-1.769000	-93.025002	1080.066040	44.388748	86.918121	42.301876
-34.160000	-7.381000	1164.428955	25.865000	81.375000	29.036875
-174.703995	32.390999	984.967041	1.246875	73.705627	29.868126
-190.076004	38.247002	1022.421021	-19.516874	74.458122	15.583750
-193.979996	104.126999	840.763000	-6.300000	73.981247	29.894375
-343.490997	83.264999	704.244995	4.440625	97.903748	12.936875
-125.660004	22.509001	445.483002	-0.253750	66.915627	11.073125
-442.738007	89.974998	478.239990	-30.625000	56.384998	5.595625
-528.199036	98.392998	431.270020	-8.264375	39.025002	3.810625
-555.283020	79.422005	544.791016	-3.508750	26.258751	-2.458750
-497.394012	70.089005	637.205994	-0.336875	9.226875	-10.482500
-494.039001	179.828003	750.117004	14.350000	-3.845625	-14.468125
-538.630005	297.740997	878.095032	28.087500	-9.366875	-20.448750
-444.080017	257.968994	897.492981	28.835625	-23.870001	-14.525000
-527.466980	347.700012	944.158020	44.489376	-21.070000	-30.222500
-382.287018	247.598999	1053.104004	49.345627	-30.183125	-41.496876
-464.697998	118.278999	903.593018	43.036877	-15.544375	-42.433125
-283.772003	64.721001	912.499023	29.986250	-60.305000	-78.347504
-341.539001	20.313000	982.283020	38.605000	-51.288124	-71.216248
-110.166000	-165.309998	1000.033997	32.759998	-47.145000	-67.318123
-470.798004	-34.831001	957.028992	27.374374	-58.130627	-53.576248
-332.084015	-293.714996	1115.019043	34.965000	-25.956875	-39.423126
-401.929016	-282.429993	1117.031982	42.717499	-19.635000	-54.451248
-419.070007	-253.150009	1000.827026	49.236252	-19.617500	-78.754372
-207.583008	-142.617996	944.463013	32.554375	-17.027500	-71.378128
-333.670013	-102.785004	826.001038	14.004375	-11.571875	-26.394375
-183.365997	-30.683001	525.697998	-16.086876	-31.876249	-16.366875
-57.706001	41.968002	445.421997	-8.925000	-44.261875	-24.421249
-125.111000	-119.621002	457.622009	-27.352501	-35.424374	-0.310625
-101.320999	16.104000	460.489014	-48.466251	-59.565624	5.000625
-207.278000	-76.127998	579.866028	-62.654373	-65.156876	14.144375
-4.636000	-148.901001	954.101013	-52.180626	-64.675629	1.636250
-21.350000	-225.578003	998.204041	-37.078125	-74.331253	-2.327500
100.772003	-209.839996	1334.192017	-52.600624	-74.751251	-19.123125
326.289001	-357.886993	1282.708008	-44.008125	-55.024376	-14.542500
-71.065002	-223.382004	1122.521973	-49.564377	-32.956875	22.049999
-42.944000	-141.459000	1359.567993	-22.504999	-61.639374	-31.351250
256.748993	-273.829010	1590.758057	24.211250	-63.813751	-26.950001
108.885002	-271.937988	1545.130005	45.198124	-28.332500	-18.773125
129.014999	-151.768005	1190.354004	39.786251	-10.198125	-5.586875
95.160004	-144.753006	1115.629028	32.611252	8.767500	15.793750
-45.628002	-64.233002	947.452026	26.337500	6.514375	15.811250
218.257996	-216.367004	961.604004	13.440000	-23.629375	10.014375
200.201996	-245.951996	1014.247009	17.784374	-15.776250	12.656875
140.848999	-217.160004	1010.038025	19.945625	3.635625	5.083750
260.653015	-282.247009	967.216003	9.301250	-14.210000	-1.666875
204.654999	-317.078003	1028.947998	13.190625	11.418750	26.985001
221.307999	-276.756989	1012.721985	19.407499	23.148125	36.671249
221.552002	-272.609009	981.367981	26.805626	12.263125	48.755001
194.163010	-269.681000	942.267029	24.211250	19.433750	55.991249
218.929001	-152.195007	940.864014	4.698750	-15.688750	51.331875
224.175003	-25.437000	1040.843018	12.009375	-6.715625	53.563126
225.578003	-0.671000	1067.134033	4.178125	24.841249	60.606876
202.824997	77.714005	1099.952026	-27.615000	-4.620000	60.326874
256.993011	129.990997	1065.547974	-28.984375	13.588750	46.296249
335.438995	240.156998	1133.258057	-26.687500	-19.919374	-1.085000
343.735016	166.347000	931.226013	4.156250	7.253750	8.356250
231.556000	78.385002	921.039001	10.893750	23.721251	25.410000
144.020996	7.747000	912.132996	12.280625	11.235000	14.748125
140.300003	-89.059998	940.132019	10.320625	-2.896250	13.741875
128.160995	-173.300995	1131.489014	16.760626	-2.401875	8.155000
123.342003	-188.734009	1275.083008	15.474375	-0.188125	19.696251
113.521004	-237.290009	1460.462036	17.189375	21.660625	33.888748
9.455000	-60.573002	1334.436035	20.396250	33.512501	27.671875
117.852005	-140.910004	1423.862061	4.558750	-1.303750	30.992500
-7.015000	-41.968002	1220.609985	28.288750	47.193127	34.474998
226.798004	-64.721001	1285.575073	40.013748	60.641876	28.406876
52.459999	70.515999	1143.750000	39.698750	74.834373	30.896250
99.064003	-69.295998	1180.289062	17.500000	84.249374	35.542500
20.007999	26.108000	951.783020	6.982500	71.089378	40.070625
57.889000	-63.500999	912.255005	6.024375	85.400002	44.979374
-17.690001	63.623001	681.979980	5.158125	83.011253	50.032501
-60.084999	11.285000	616.221985	-2.349375	87.080002	44.848125
-267.240997	167.139999	590.906982	-7.643125	65.410622	40.945625
-260.287018	152.865997	543.510010	-4.703125	52.858749	30.301250
-375.028015	132.369995	637.694031	-7.748125	33.796875	11.213125
-375.394012	24.521999	722.789001	-8.365000	15.496250	2.734375
-383.994995	124.988998	813.862000	-1.951250	-1.303750	-5.201875
-381.433014	51.667000	860.588013	5.560625	15.019375	-6.321875
-400.282013	192.760010	916.281006	6.956250	-5.985000	-14.402500
-345.442993	233.324997	918.416016	12.302500	-6.041875	-21.463751
-315.980011	275.110016	998.875000	17.841249	-11.554375	-24.036249
-302.071991	361.791016	935.617981	26.945625	-18.786249	-24.088751
-292.617004	234.606003	973.255005	33.486252	-5.149375	-31.950624
-251.076004	316.285004	958.187988	27.995625	-25.370625	-43.448124
-238.876007	143.960007	1004.304016	14.266875	-16.301250	-62.645626
-157.807007	82.959999	940.254028	12.648125	-27.413750	-48.663124
-409.675995	8.845000	984.296021	19.175625	-12.140625	-67.436249
-209.473999	-25.986000	942.755005	18.313749	-20.313126	-84.634377
-229.360001	-47.275002	973.437988	18.615625	-19.696251	-76.645622
-399.306000	-108.335999	1048.468018	15.636250	-1.141875	-67.226250
-280.904999	-232.166000	864.614014	13.934375	-13.068125	-47.757500
-508.679016	-194.163010	964.715027	23.450001	-6.711250	-43.128750
-372.222015	-243.389999	902.434021	25.011875	-7.402500	-52.849998
-391.681000	-25.559000	899.200989	21.805000	-9.751875	-36.312500
-313.295990	-83.142998	822.768005	25.138750	-6.956250	-29.120001
-242.719009	-18.117001	822.645996	9.865625	-14.774375	-16.931250
-230.214005	-13.237000	739.502991	3.250625	-15.378125	-6.833750
-225.882996	38.857002	706.014038	-13.798750	-14.988750	-8.763125
-175.009003	66.856003	625.372009	-17.456249	-15.093750	-16.948750
-249.184998	214.537003	493.795013	-2.069375	-12.796875	-20.759375
-97.722000	51.423000	639.707031	-8.277500	-50.491875	-29.671249
80.946999	-89.181999	751.580994	-22.850624	-64.299377	8.806875
-204.410995	-189.283005	905.971985	-56.953751	-48.527500	8.194375
122.000000	-233.020004	1081.530029	-68.906250	-85.321251	-14.870625
-118.889000	-266.447998	1144.848022	-35.139999	-25.558750	-11.191250
-19.093000	-281.575989	1434.354004	-26.700624	-49.166248	-26.083750
73.931999	-222.650009	1421.177979	14.367500	-54.477501	5.013750
-142.130005	-113.459999	1527.562012	34.676250	-28.603750	1.264375
127.306999	-62.159000	1494.865967	28.616875	-47.083752	-21.310625
114.497002	82.777000	1368.718018	2.213750	-40.403126	-2.699375
134.871002	-25.375999	1309.364990	-1.684375	-4.913125	13.365625
60.695000	-74.542000	1160.281006	-0.288750	9.896250	12.836250
83.142998	-114.252998	1011.319031	-7.310625	4.112500	11.165000
98.881004	-96.136002	923.418030	6.938750	1.911875	-0.708750
177.266006	-159.332001	981.856018	10.793125	6.597500	-4.029375
137.432999	-163.602005	938.484985	1.850625	-0.087500	6.291250
49.593002	-242.658005	959.103027	4.340000	10.084375	11.550000
108.580002	-395.524017	987.590027	0.065625	-2.528750	16.100000
29.158001	-419.252991	981.794983	2.541875	-1.421875	30.375626
-83.204002	-408.334015	971.913025	21.621250	15.487500	31.775625
-1.037000	-355.203003	1024.617065	18.221874	-1.260000	28.896875
38.491001	-310.123993	1076.467041	13.846875	-13.654375	39.396873
-6.832000	-209.535004	1079.273071	6.146875	7.013125	33.569374
145.729004	-17.750999	1123.558960	-13.768125	24.412500	29.798124
136.091003	-26.779001	1180.959961	-29.408751	28.113750	42.914375
110.836998	-31.232000	967.155029	-30.778126	-7.227500	53.698750
47.580002	-33.793999	1028.216064	-15.509375	-1.885625	34.230000
259.981995	-14.213000	941.901001	-8.881250	-14.004375	12.779375
253.699005	98.514999	864.858032	0.179375	-12.293750	26.950001
142.617996	128.710007	898.286011	24.762501	14.109375	33.363750
103.516998	122.427002	902.251038	20.833750	15.662500	38.469376
100.284004	84.119003	1060.729004	19.722500	-7.481250	32.221874
97.234001	17.507000	1420.263062	19.254375	-29.592501	27.466249
-69.967003	61.243999	1544.520020	20.890625	-17.705626	35.109375
30.195000	-44.225002	1577.459961	10.578750	-12.254375	33.066250
75.762001	56.181000	1445.029053	5.985000	-12.678750	31.815001
66.794998	-56.608002	1403.427002	9.839375	35.756874	40.910625
162.503998	-50.325001	1501.880981	21.284374	57.889999	17.219999
194.346008	0.915000	1338.279053	43.570625	76.711250	12.508125
188.307007	-36.050999	1238.483032	40.328751	95.151878	18.961250
42.272999	110.836998	1055.848999	34.965000	88.956879	13.842500
113.154999	20.923000	886.085999	30.677500	92.067497	5.140625
-25.254000	133.529007	422.608002	5.831875	83.461876	-2.143750
-109.983002	136.457001	334.341003	-5.131875	76.930000	11.462500
-299.876007	151.035995	330.742004	-10.298750	64.907501	12.416250
-245.768997	122.487999	314.638000	-7.739375	25.226250	2.008125
-492.148010	238.693008	516.304016	12.438125	12.158125	-2.769375
-380.213013	211.609009	624.151978	16.677500	7.791875	-16.874374
-316.101990	310.307007	755.973022	10.696875	-15.614375	-22.771875
-314.028015	453.901001	855.890991	14.752500	-20.833750	-31.683750
-181.475006	359.656006	907.009033	13.711250	-24.653126	-33.162498
-299.449005	361.119995	1006.072998	25.510626	-28.183750	-37.891876
-236.192001	224.846008	1116.360962	24.206875	-42.603748	-61.665627
-290.054993	135.968994	1085.921997	18.598125	-30.423750	-75.862503
-108.458000	59.048000	1028.765015	7.826875	-27.326250	-88.790627
-272.487000	10.492001	1058.959961	18.641874	-20.986876	-64.220627
-369.171997	-71.492004	1006.561035	34.181873	-11.865000	-91.209999
-222.345001	-225.089996	980.697021	25.300625	-14.319375	-71.828751
-491.355011	-206.607010	1033.401001	11.703125	-17.241875	-50.032501
-367.342010	-230.885010	963.494995	11.755625	-18.484375	-62.050625
-293.166016	-208.193008	865.712036	-0.472500	-20.759375	-34.715626
-346.175018	-136.335007	803.126038	-6.063750	-4.698750	-19.311251
-293.714996	-102.663002	620.614014	-12.796875	-11.138750	-21.870625
-206.973007	-73.566002	544.364014	-11.392500	-10.276875	-33.569374
-127.124001	2.684000	434.442017	-6.663125	-30.423750	-23.401875
-142.496002	1.708000	621.468018	-0.638750	-30.734375	-4.873750
29.951000	-17.446001	765.367004	10.539375	-27.597500	5.928125
-134.139008	-112.606003	731.512024	-4.882500	-33.586876	16.143749
-53.618999	-85.278000	1029.130981	-16.371250	-41.081249	-6.606250
181.475006	-179.706009	897.127014	-17.937500	-71.933746	5.184375
-136.335007	-99.735001	1105.136963	-50.032501	-59.128124	12.263125
-98.820000	-54.961002	1128.255981	-40.110001	-56.507500	3.583125
75.457001	-53.436001	1408.978027	-18.558750	-62.063751	1.776250
130.479004	-171.348999	1408.734009	21.538124	-7.665000	25.300625
-345.687012	-60.878002	1262.760986	1.553125	-10.259375	16.620625
54.778000	-102.418999	1650.537964	-16.511250	-34.724377	-23.275000
97.966003	52.216000	1348.893066	-9.467500	-32.654999	4.948125
-107.116005	-17.263000	1433.927002	8.233750	9.213750	23.734375
29.524000	-55.693001	1323.578003	-2.961875	-7.074375	2.244375
85.583000	-13.664001	1019.127014	-14.997500	-25.453751	-2.003750
70.150002	-49.897999	953.796021	-6.103125	-7.625625	0.231875
96.441002	-198.311005	903.104980	0.472500	-6.969375	4.466875
98.332001	-369.660004	1034.133057	9.961875	12.512500	12.621875
15.067000	-419.436005	955.626038	8.181250	-0.420000	18.510626
36.417000	-386.618011	908.900024	24.644375	-19.639376	40.389999
59.230999	-375.272003	1095.560059	42.953751	-7.192500	49.826874
23.424000	-102.906998	998.447998	51.690624	-11.838750	33.775002
179.828003	-170.068008	1012.234009	27.247499	-10.040625	38.526249
153.415009	-159.332001	1160.646973	-0.892500	10.933125	52.403751
108.092003	-55.021999	1037.854004	-10.793125	21.656250	48.610626
323.910004	-201.727005	1171.810059	-11.528125	43.001877	52.228748
-60.878002	33.000999	961.786987	-33.621876	18.996250	42.148750
231.434006	-55.449001	1026.812988	-33.153751	-1.330000	6.063750
117.181000	51.728001	914.512024	-36.557499	1.408750	7.853125
120.231003	60.451000	925.858032	-15.898750	-3.167500	-6.431250
290.115997	113.521004	936.838013	-15.264375	-24.141251	-6.006875
126.453003	185.744995	960.322998	8.211875	1.076250	12.757500
118.645004	186.538010	1028.643066	22.671249	10.045000	17.920000
86.986000	101.687004	1003.755005	-1.032500	-20.304375	25.983126
55.144001	-24.521999	1154.242065	10.390625	-11.554375	18.361876
-45.445000	-152.927002	1496.817993	7.879375	-21.459375	12.053125
-41.541000	-135.785995	1535.919067	-13.671875	-7.761250	30.751875
8.235000	-183.122009	1532.930054	-6.225625	19.350624	32.033749
66.001999	-288.102997	1460.401001	0.376250	30.874374	42.590626
0.000000	-255.468002	1450.763062	21.568750	90.019997	52.316250
68.381004	-200.141006	1336.327026	17.290001	71.841873	41.903751
-0.549000	-151.097000	1276.669067	31.867500	88.344376	39.545624
43.554001	-202.154007	1116.666016	52.578751	98.511871	39.878124
-47.580002	-132.065002	993.567993	50.185623	109.116875	38.403751
-110.653999	41.053001	869.738037	35.564377	80.430000	23.598749
22.143000	63.684002	537.898010	16.900625	82.669998	-2.423750
-200.201996	153.841995	435.967010	-5.075000	85.636253	35.367500
-363.864990	104.554001	322.019012	12.118750	84.555626	20.903749
-279.929016	116.998001	328.972992	9.686250	62.365623	1.666875
-460.244995	176.656006	342.820007	-9.975000	37.721249	0.770000
-472.933014	140.787994	396.561005	-10.141250	32.445000	-14.328125
-518.377991	309.636017	518.377991	-5.530000	-0.148750	-23.170000
-562.786011	325.739990	655.750000	12.726875	1.623125	-9.966250
-409.920013	384.666016	741.577026	25.729376	-17.736250	-7.980000
-541.862976	421.692993	928.786011	42.770000	-30.008125	-9.183125
-396.011993	290.908997	1024.190063	49.516251	-44.152500	-42.336876
-419.619019	161.345001	1090.009033	48.190624	-28.367500	-64.872498
-354.593018	18.544001	1130.756958	48.343750	-28.546875	-70.476875
-543.388000	76.127998	1043.161011	50.771873	-33.604374	-73.771248
-461.953003	-46.604000	1031.204956	45.123749	-33.508125	-88.746872
-425.718994	-25.559000	991.067017	40.827499	-33.569374	-81.051247
-457.744019	-116.388000	969.106995	37.638126	-30.161249	-66.206879
-557.112976	-32.269001	940.437012	26.355000	-18.055626	-60.073124
-327.447998	-218.501999	867.968994	21.056875	-17.753750	-48.313126
-567.971008	-93.940002	815.997009	5.271875	-10.745000	-30.253124
-528.077026	-116.205002	696.376038	-8.036875	-15.505000	-29.833124
-387.716003	-114.070000	673.744995	-6.733125	-10.596250	-20.671875
-331.778992	-16.409000	544.851990	-12.617500	-19.696251	-1.203125
-211.914001	-109.556000	565.164978	-7.980000	-15.233750	3.806250
-170.311996	-39.833000	376.614014	-21.586250	-21.109375	-0.280000
-154.574005	173.727997	468.723999	-46.891251	-65.415001	-8.671250
-87.047005	-57.218002	526.918030	-52.587502	-38.990002	2.786875
-282.490997	-44.896000	733.281006	-54.796875	-44.205002	-4.790625
-15.067000	-109.922005	774.822021	-36.299374	-82.140625	-17.123751
4.331000	-241.926010	910.973999	-37.695000	-93.743126	-20.264999
38.125000	-470.371002	1056.703003	-47.459999	-84.726250	-9.253125
-136.029999	-180.438004	1273.557983	-54.915001	-77.236252	-21.376249
186.538010	-432.002014	1423.984009	-6.960625	-105.349998	-15.176875
-232.410004	-268.583008	1633.763062	24.780001	-36.133125	-12.026875
77.470001	-168.421005	1753.994019	31.368750	-92.474373	-46.821251
215.695999	-150.548004	1664.994995	33.136250	-65.751877	-25.584999
124.195999	-65.086998	1529.453003	13.781250	-9.323125	6.216875
77.958000	-43.980999	1360.666016	5.271875	-9.235625	15.168125
92.842003	-73.566002	1159.000000	-2.835000	1.736875	14.450625
192.638000	-207.339005	858.392029	-3.132500	-5.005000	-5.053125
205.326004	-382.592010	910.303040	9.196250	10.307500	13.181875
44.957001	-530.760986	979.355042	15.684375	25.948126	24.885000
95.465004	-358.436005	880.778992	15.321250	6.702500	23.065001
64.050003	-536.007019	994.971008	9.870000	19.376875	48.448750
-89.792000	-378.627014	1012.356018	9.323125	18.151875	30.100000
81.984001	-258.518005	1045.052002	2.493750	-11.606875	-3.552500
243.329010	-293.776001	1039.135010	-4.501875	-13.212500	17.355625
161.772003	-218.867996	1052.859985	-4.462500	12.678750	20.488125
245.281006	-141.031998	1039.196045	-23.734375	-8.246875	24.762501
195.566010	-210.816010	1003.145020	-49.398125	-12.166875	43.876877
260.347992	-80.215004	1012.905029	-55.160000	-34.886250	38.373123
270.473999	95.465004	900.359985	-7.643125	-43.579376	20.908125
288.591003	68.990997	927.687988	37.432499	-6.374375	31.294374
266.997009	50.264000	973.437988	65.165627	21.214375	36.907501
200.568008	128.100006	1037.609985	51.852501	20.978125	28.787500
151.402008	76.615997	1071.708984	3.101875	-14.345625	32.064377
164.334000	-83.509003	1019.798035	4.471250	-20.221251	27.116249
116.144005	-151.585007	1208.044067	5.849375	-1.719375	29.841875
68.625000	-183.854004	1239.581055	16.415001	-14.840000	20.501249
4.880000	-201.300003	1543.848999	10.893750	1.570625	25.948126
146.522003	-127.001999	1367.681030	23.244375	-3.338125	10.591875
71.675003	-270.473999	1487.790039	5.674375	21.791876	25.834375
156.831009	-99.307999	1463.572998	1.251250	25.230625	19.696251
205.753006	-219.417007	1276.485962	27.028749	60.532501	22.273125
208.436996	-186.171997	1269.958984	27.510000	88.265625	20.575624
285.480011	-186.538010	1153.204956	36.369373	88.681252	31.027500
168.665009	-111.020004	907.192017	48.763748	105.682503	22.588125
118.828003	43.798000	811.910034	24.215626	123.239372	14.367500
-62.830002	120.292000	533.445007	-21.721874	93.625000	11.563125
-210.389008	304.511993	420.412018	-20.059376	51.541874	18.795000
-351.238007	125.843002	459.878998	-10.268125	65.555000	34.098751
-313.845001	89.059998	512.705017	-12.158125	54.468750	32.821251
-538.934998	29.646000	495.563995	-12.976250	13.772500	19.980625
-337.940002	-17.446001	753.289001	-8.229375	12.254375	4.392500
-446.398010	11.956000	702.231995	-0.354375	-18.160625	-9.397500
-412.726013	110.471001	843.020020	5.372500	0.608125	-14.026250
-330.803009	151.707001	880.169006	6.094375	-5.893125	-8.395625
-352.031006	388.692017	910.424988	15.579375	-26.595625	-13.422500
-288.102997	475.373016	855.890991	17.893749	-39.584999	-1.920625
-267.363007	208.010010	1154.546997	27.208124	-13.540625	-41.278126
39.771999	119.743004	1070.733032	13.803125	-19.254375	-48.483749
-165.065994	32.269001	1071.770020	13.225625	-28.446251	-57.649376
-94.733002	51.300999	1056.764038	11.956875	-22.478750	-64.553123
-183.548996	-148.839996	1018.760986	22.089375	-11.081875	-43.666874
-365.695007	-170.007004	1060.424072	29.741249	-10.176250	-71.268753
-215.451996	-278.526001	1161.867065	25.663750	-9.918125	-70.153122
-478.362000	-156.281998	1048.833984	33.490623	-18.182501	-79.200623
-237.716995	-265.532990	931.226013	27.960625	-19.600000	-49.892502
-493.673004	-260.165009	970.083008	37.327499	15.067500	-39.151875
-358.192017	-237.229004	918.903992	15.973125	2.485000	-40.162498
-375.149994	-192.882004	812.825012	-13.387500	-2.918125	-22.841875
-335.195007	-86.253998	832.101013	-16.323126	4.305000	-29.351875
-223.686996	-94.733002	640.439026	-20.623751	-0.975625	-17.202499
-292.860992	-96.258003	608.291992	-19.823126	2.283750	4.449375
-280.600006	-122.427002	614.453003	-7.761250	-8.767500	-5.915000
-153.048996	-109.800003	570.411011	-8.540000	-26.565001	-19.775000
-9.821000	-101.077003	661.666992	-4.147500	-49.201248	-16.918125
-149.206009	-201.056000	754.325989	-12.617500	-21.411249	18.917500
-85.888000	-147.803009	754.570007	-5.871250	-55.387501	5.333125
-198.981995	-141.581009	818.986023	-12.481875	-48.361252	-8.373750
-104.798004	-5.490000	987.223999	-40.578125	-89.114372	-35.551250
127.734001	-66.001999	1023.763000	-37.283749	-113.728127	-5.341875
53.985001	-279.807007	1709.159058	-3.158750	-63.966873	-1.373750
1.281000	-44.103001	1613.937988	7.065625	-32.051250	-21.354376
233.751999	-35.563000	1657.979980	-30.703751	-80.832497	-7.879375
115.107002	-88.023003	1518.411987	-35.179375	-25.878124	5.980625
210.022995	-142.434998	1253.244995	-8.001875	-18.051250	-16.016874
151.707001	-110.776001	1102.941040	3.158750	2.397500	-0.805000
60.938999	-126.880005	1024.067993	3.740625	13.361250	1.964375
165.798004	-195.139008	997.411011	3.338125	6.387500	0.984375
120.658005	-273.524017	981.367981	8.701875	8.478750	7.599375
80.459000	-306.708008	965.507996	10.307500	10.294375	9.257500
123.585999	-390.949005	983.686035	9.996875	6.343750	14.192500
-1.830000	-378.078003	1020.835022	18.519375	4.458125	10.373125
87.473999	-285.723999	1062.619995	8.133125	-6.094375	0.875000
235.520996	-345.687012	911.401001	-0.630000	-7.192500	27.426874
39.771999	-265.716003	946.658997	28.380625	4.020625	34.811874
221.186005	-211.609009	945.134033	28.209999	-10.263750	26.998125
123.830002	-125.721001	1068.232056	27.190624	9.078125	35.288750
140.178009	-109.068001	968.619019	14.319375	13.116250	29.356251
221.490997	33.000999	1160.159058	10.062500	-17.386250	20.085625
178.181000	84.850998	1156.072021	-0.030625	9.546250	28.153126
158.356003	79.361000	1060.546021	-18.226250	7.564375	35.236252
167.932999	-15.982000	1065.487061	-19.678749	1.588125	33.954376
200.080002	-94.062004	1001.376038	-12.915000	20.750626	47.954376
111.996002	27.267000	871.140991	-3.206875	8.964375	39.908749
155.306000	54.046001	923.234985	-0.315000	2.362500	25.965626
149.755005	15.921000	943.975037	-5.153750	-13.676250	17.968124
65.453003	60.024002	1024.617065	-9.331875	-34.615002	6.195000
150.121002	62.830002	1125.023071	28.546875	-25.191250	13.396250
43.310001	16.469999	1223.110962	14.529375	-0.201250	19.888750
61.792999	18.910000	1340.474976	4.138750	-25.011875	19.263124
95.343002	-18.239000	1330.227051	6.107500	-5.328750	27.396250
116.205002	-110.653999	1436.427979	8.229375	16.611876	25.160625
38.063999	-49.653999	1363.776978	6.146875	32.313751	17.110624
167.932999	-30.743999	1231.162964	6.811875	36.111252	20.610624
160.979004	-114.009003	1142.468994	15.850625	66.521873	27.081249
162.259995	35.685001	1104.161011	36.588123	100.834999	34.663124
-115.290001	-45.872002	1079.516968	42.822498	117.635002	36.229374
14.579000	-41.053001	1075.796021	35.958126	83.715622	27.562500
-89.731003	32.695999	1041.026001	36.299374	70.363129	27.326250
-112.179001	-16.348000	891.880981	27.208124	79.480621	11.900000
-115.412003	124.318001	705.281982	15.141875	56.297501	9.135000
-105.957001	23.241001	520.817993	4.812500	41.413750	16.240000
-499.162994	175.740997	380.884003	-5.687500	45.841251	4.116875
-496.356995	71.431000	505.446014	-13.558125	41.181873	11.655000
-462.319000	169.397003	618.601013	-5.215000	18.825624	-14.004375
-435.417999	206.729004	743.712036	9.957500	-0.735000	-29.150625
-338.855011	182.817001	878.643982	9.384375	0.284375	-21.971251
-385.032013	270.046997	908.168030	11.051250	-0.608125	-23.275000
-401.746002	210.999008	921.832031	11.414375	-2.345000	-26.508125
-392.901001	202.337006	972.523010	10.101875	-5.285000	-31.206875
-338.733002	265.472015	925.247986	17.211250	-17.158751	-45.679375
-347.394989	216.428009	889.989990	23.799999	-18.606874	-50.207500
-311.770996	164.882996	886.330017	37.388748	-29.207500	-48.466251
-277.610992	63.623001	902.067993	38.871876	-31.850000	-51.909374
-304.450989	12.932000	885.720032	34.409374	-41.938751	-52.390625
-267.972992	10.980000	949.160034	34.733124	-32.812500	-52.255001
-394.670013	60.938999	932.080017	30.786875	-38.919998	-52.626877
-261.140991	-69.357002	1014.491028	21.100624	-43.938126	-49.035000
-266.875000	-9.760000	1087.630005	9.069375	-33.079376	-31.167500
-368.378998	-120.048004	1015.710999	1.321250	-16.909374	-23.135000
-319.579010	-67.771004	1052.921021	-2.060625	-16.296875	-24.587500
-318.114990	-83.387001	920.184998	0.730625	-3.928750	-25.921875
-204.654999	65.331001	734.562012	-14.813750	-9.555000	-31.469376
-139.628998	13.786000	604.205017	-16.839375	-17.189375	-15.085000
-238.815002	13.786000	530.638977	-20.317499	-17.758125	-4.878125
-91.072998	1.525000	427.915009	-25.663750	-39.051250	-2.896250
-214.964005	-106.262001	452.315002	-43.540001	-49.546875	-9.349375
-16.836000	-54.229000	595.421021	-61.096874	-52.670624	-28.656250
169.214005	-146.278000	579.987976	-61.915001	-78.999374	-12.280625
-43.737000	-233.691010	980.880005	-60.300625	-75.516876	0.240625
289.567017	-334.950989	1126.609009	-37.318748	-50.067501	-8.968750
6.588000	-355.752014	1508.591064	-3.736250	-24.780001	-4.287500
219.600006	-311.832001	1305.521973	-9.012500	-46.103748	-22.522499
-44.042000	-204.350006	1355.847046	-28.113750	-53.965626	-2.891875
140.666000	-304.938995	1509.505981	-9.900625	-33.880001	-31.307501
275.963989	-227.652008	1278.926025	-7.516250	-31.368750	-3.521875
3.111000	-155.428009	1320.771973	2.139375	-23.861250	17.587500
157.257996	-198.432999	1295.213013	1.881250	-13.405000	-0.835625
167.078995	-158.294998	1144.542969	-9.117500	-17.521875	-2.835000
211.792007	-207.400009	1125.693970	-4.200000	-17.115000	-3.976875
192.882004	-272.364990	945.622009	3.346875	-2.065000	6.339375
219.844009	-385.520020	981.062988	14.966875	8.369375	7.927500
178.181000	-447.252014	912.499023	25.510626	27.059376	12.958750
151.341003	-496.540009	971.851990	39.099377	24.815001	10.670625
71.858002	-479.459991	970.022034	47.131874	52.198124	11.755625
45.323002	-358.558014	993.018982	52.955002	64.701874	11.659375
-14.335000	-295.484009	1032.425049	34.702499	26.350624	1.050000
133.162994	-309.880005	1037.915039	16.165625	12.460000	-6.580000
98.209999	-132.796997	1058.532959	3.941875	9.620625	1.006250
34.770000	-131.638000	1049.749023	-21.778749	13.348125	16.690624
47.702000	-59.353001	1241.655029	-5.285000	21.896875	19.446875
153.964005	-136.762009	1156.133057	-41.978127	39.340000	20.059376
152.500000	-74.176003	882.487000	-57.448124	-25.221874	21.940624
156.953003	-2.501000	779.763000	-21.000000	-5.521250	33.096874
172.386002	-53.436001	904.996033	13.558125	30.725624	43.535625
88.754997	92.537003	888.892029	14.783125	-10.377500	34.606251
47.885002	259.493988	1030.961060	16.821875	-12.761875	25.488750
89.059998	202.214996	1187.914062	3.666250	-23.502501	17.950624
28.670000	186.660004	1123.375977	-8.505000	-26.508125	24.504375
-45.445000	-86.681000	1346.087036	-8.806875	-30.988125	17.421249
-76.127998	-114.497002	1456.924072	13.790000	-29.347500	4.134375
72.773003	-191.783997	1507.005005	32.484375	5.394375	-16.393126
222.345001	-219.660995	1405.013062	-8.509375	14.297500	25.711876
0.488000	-138.287003	1176.629028	-23.695000	26.586876	60.917500
19.703001	-236.863007	1103.551025	-23.117500	28.931875	47.180000
197.335007	-271.571991	1111.724976	-12.381250	18.449375	28.380625
129.137009	-205.264999	1159.975952	6.706875	46.326874	26.061874
131.149994	-251.320007	1276.791016	4.353125	64.063126	23.148125
123.769005	-153.171005	1163.880005	14.437500	70.971252	37.576874
11.651000	-9.028000	781.531982	24.311874	86.668747	40.341873
-119.621002	-59.170002	696.070984	31.443125	81.007500	27.833750
-90.646004	57.401001	461.526001	19.280624	56.021873	20.413750
-236.740997	129.259003	333.059998	17.504375	33.188751	7.424375
-333.182007	31.842001	410.529999	0.918750	58.353748	10.771250
-469.395020	154.574005	465.002991	9.546250	32.331249	5.901875
-422.485992	-50.264000	609.207031	12.919375	23.830626	10.014375
-379.175995	29.524000	664.229004	2.415000	-8.443750	16.314375
-495.381012	29.768000	817.888000	10.618125	-8.163750	5.608750
-467.687012	285.662994	934.764038	4.348750	-28.174999	0.131250
-369.110992	213.927002	1025.531982	17.609375	-13.536250	-29.277500
-215.818008	342.515015	1057.008057	22.684376	-28.525000	-36.312500
-272.852997	313.295990	1081.713013	30.804375	-27.930000	-33.508125
-129.137009	250.466003	1073.051025	19.582500	-19.770624	-45.058125
-118.096001	367.037018	1086.044067	8.671250	-17.399376	-34.903751
-138.531006	175.009003	964.837036	27.190624	-19.381250	-52.342499
-145.363007	66.612000	840.580017	20.138124	-21.761250	-95.480003
-97.478004	116.815002	864.431030	14.236250	-30.183125	-82.088127
-235.460007	-270.291016	876.325989	17.088751	-38.044998	-83.724373
-140.361008	-213.622009	924.272034	2.030000	-38.508751	-65.716873
-252.296005	-533.567017	1012.600037	14.997500	-40.726875	-60.160625
-142.007996	-430.233002	1109.895020	18.969999	-42.008751	-59.591873
-148.291000	-352.701996	1177.239014	33.311249	-33.792500	-47.599998
-95.343002	-252.966995	1106.844971	36.386875	-8.662500	-45.985626
-68.076004	-83.814003	939.583008	11.453750	2.021250	-33.617500
-84.545998	-81.374001	821.487000	-8.220625	-5.289375	-8.540000
32.757000	-81.374001	623.603027	-22.286249	12.775000	-11.733750
-22.264999	53.924000	538.690979	-29.456875	0.896875	-21.209999
-20.374001	-58.926003	451.156006	-19.954374	-22.920626	-26.595625
-24.400000	-89.304001	679.539978	-31.574375	-25.847500	-8.618750
-26.840000	-170.678009	713.273010	-34.956249	-39.541248	-19.853750
-8.906000	-190.563995	854.854004	-34.601875	-70.699997	-14.166250
119.621002	-145.423996	861.625000	-38.771252	-49.126877	-27.334999
145.240997	-282.368988	1102.087036	-33.162498	-64.610001	1.566250
66.246002	-311.343994	1299.787964	-43.719376	-49.275623	17.758125
203.496002	-415.714996	1434.354004	-46.270000	-72.874374	-14.590625
131.455002	-282.856995	1336.083008	-51.511250	-105.105003	-22.487499
494.527008	-258.457001	1429.596069	8.750000	-109.602501	-24.893749
297.619019	-143.654999	1357.188965	43.351875	8.001875	-10.040625
313.052002	-127.124001	1311.744019	25.186874	18.396875	-10.106250
310.246002	-148.412994	1165.405029	-15.968750	14.319375	-5.276250
275.963989	-168.238007	999.851013	-26.389999	32.759998	0.105000
231.068008	-171.166000	924.272034	-10.320625	26.635000	-9.782500
321.592010	-198.798996	933.604980	-0.376250	15.631875	-12.958750
252.357010	-247.294006	898.286011	-5.757500	18.003124	-9.178750
257.359009	-181.109009	877.911987	-3.399375	13.024375	-12.761875
272.425995	-298.106995	894.992004	-0.612500	23.454374	-6.737500
244.975998	-465.490997	917.317993	8.588125	-5.613125	-15.863750
299.937012	-470.554016	938.241028	8.732500	16.769375	0.634375
188.734009	-505.933990	910.546997	18.353125	31.906876	20.146875
260.408997	-426.084991	926.833984	20.750626	-4.068750	18.589375
333.670013	-382.958008	1014.491028	11.536875	-22.561874	20.597500
285.480011	-283.710999	1040.904053	14.214375	0.599375	29.290625
362.339996	-262.483002	1081.103027	0.463750	12.512500	39.361874
329.644012	-242.231003	1134.416992	-22.601250	10.749375	43.080624
263.032013	-41.968002	1121.057983	-18.501875	-2.817500	44.283749
131.516006	58.316002	969.838989	-5.245625	17.845625	51.104374
112.239998	137.494003	949.038025	-0.560000	1.548750	54.031250
106.322998	75.029999	902.556030	14.043750	-0.446250	56.542500
51.300999	99.612999	891.393005	16.940001	23.288124	54.875626
110.898003	57.278999	964.653992	11.545625	11.130000	37.441250
94.916000	99.552002	984.723022	17.959375	-11.628750	17.307501
75.396004	18.788000	1100.379028	9.511250	11.628750	19.245625
93.513000	-47.702000	1094.523071	7.113750	0.783125	5.101250
49.348999	-77.470001	1198.284058	3.303125	-7.205625	10.906875
118.278999	-193.919006	1207.312012	-11.729375	8.456875	17.985624
-20.801001	-301.828003	1168.942993	-18.217501	-17.368750	40.005001
100.405998	-376.858002	1205.421021	-3.014375	-2.082500	37.830624
114.802002	-356.423004	1226.161011	7.678125	6.518750	20.531876
153.415009	-359.290009	1289.661987	7.665000	34.015625	12.298125
232.044006	-364.048004	1445.212036	15.601250	25.803749	28.879375
286.273010	-261.263000	1492.426025	37.568127	93.152496	38.329376
140.971008	-164.272995	1292.956055	47.976250	102.816872	50.259998
46.848000	-78.995003	1044.930054	46.904373	93.012497	57.312500
118.156998	-79.422005	793.731995	29.872499	89.092499	60.160625
-119.743004	76.189003	618.052002	34.273750	84.315002	16.642500
-247.781998	34.831001	477.752014	18.856251	37.310001	21.148750
-219.477997	107.177002	494.222015	22.540001	76.041878	-3.543750
-301.339996	63.135002	504.408997	13.426875	51.043125	1.754375
-388.020996	93.208000	557.723022	2.773750	32.860626	5.035625
-431.209015	103.578003	612.867004	16.502501	7.844375	2.349375
-426.572998	172.569000	689.788025	5.341875	9.664375	-3.115000
-522.038025	267.179993	797.880005	3.329375	-4.344375	-8.850625
-356.972015	268.399994	897.249023	4.204375	5.525625	-18.370625
-390.278015	295.484009	1050.297974	8.391250	-9.953125	-18.576250
-246.501007	294.752014	949.221008	9.695000	-22.535625	-32.151875
-432.368011	341.356018	894.687012	4.370625	-30.305626	-28.411249
-314.333008	225.761002	819.291016	12.355000	-16.419374	-45.167500
-161.283997	162.259995	801.783997	9.992500	-37.008125	-59.898125
-190.930008	91.195000	891.697998	22.172501	-9.642500	-61.954376
-312.808014	-39.223000	889.746033	47.131874	-1.986250	-90.829376
-206.667999	-156.953003	1018.395020	20.470625	-30.799999	-93.331879
-319.640015	-112.606003	1070.854980	-4.235000	-34.133751	-67.733749
-285.053009	-409.920013	1095.987061	2.773750	-34.759377	-67.086250
-288.713013	-382.104004	1083.848022	17.307501	-13.125000	-59.696877
-250.527008	-430.050018	1099.952026	23.695000	6.816250	-55.496876
-221.186005	-280.477997	962.213989	10.171875	4.068750	-27.405001
-295.666992	-280.356018	851.804016	5.175625	7.192500	-9.353750
-251.197998	-229.298996	771.161987	-2.380000	-0.774375	-9.550625
-251.320007	-152.622009	645.746033	-11.585000	-19.849375	-9.887500
-203.374008	-54.473000	563.273987	-15.277500	-24.639999	-14.783125
-100.223000	-3.965000	447.679016	-3.167500	-53.991875	-2.384375
-7.808000	-60.084999	338.550018	7.844375	-102.536873	15.338750
-49.227001	50.202999	570.898987	-9.975000	-85.767502	8.465625
221.613007	-241.376999	930.189026	-16.747499	-77.389374	2.170000
142.374008	-114.741005	1138.565063	-57.242500	-43.942501	-5.258750
258.091003	-24.034000	1274.411987	-59.797501	-42.879375	-16.585625
307.989014	-236.863007	1520.242065	-34.566875	40.381248	21.122499
0.854000	-342.027008	1418.921021	-30.716875	-19.831875	30.415001
31.354000	-367.158997	1279.901978	-32.956875	-72.813126	12.429375
24.948999	-305.000000	1286.307007	-30.808750	-88.711876	-23.362499
225.699997	-295.300995	1187.120972	-15.001875	-61.363750	-37.677502
269.803009	-367.463989	1265.445068	-0.485625	-38.718750	-26.932501
230.885010	-191.479004	1126.182007	15.054375	-15.933750	-12.376875
305.976013	-245.647003	1221.525024	32.108124	-5.595625	-10.775625
341.539001	-248.636002	1154.973999	26.525625	6.593125	-8.255625
258.091003	-153.598007	1019.005005	12.236875	2.992500	6.803125
293.959015	-230.458008	1024.129028	5.171250	8.583750	11.291875
250.039001	-239.059006	944.890015	10.675000	17.290001	10.355625
245.585999	-263.093018	917.501038	17.998751	18.816875	9.708125
299.205017	-313.783997	947.817993	17.731874	24.784374	14.927500
162.626007	-355.446991	887.306030	16.065001	20.610624	18.418751
195.199997	-410.895996	1022.116028	-0.805000	39.501877	22.736876
157.197006	-461.770020	940.254028	-20.483749	12.600000	42.030624
158.356003	-498.431000	984.174011	-14.227500	9.362500	41.549374
50.142002	-317.200012	864.796997	-10.486875	10.386250	34.474998
163.785004	-306.463989	911.096008	-7.288750	-18.401251	39.672501
218.807007	-239.669006	954.406006	-10.762500	-30.301250	38.548126
224.906998	-155.854996	1052.921021	-2.528750	-39.060001	27.457500
365.877991	-22.753000	1244.583008	-11.523750	-32.913124	4.768750
469.700012	77.530998	1088.484009	-34.781250	-28.853125	25.711876
205.936005	116.144005	976.793030	-3.955000	-5.635000	25.532499
237.046005	107.299004	960.505981	25.532499	-6.619375	17.858749
201.788010	123.708000	911.950012	43.986252	0.835625	27.243126
158.173004	12.566000	1081.041992	33.009377	19.075001	21.848749
141.154007	-27.023001	1068.171021	29.268749	5.718125	7.507500
117.425003	-135.298004	1142.895996	26.608749	1.137500	12.053125
165.675995	-188.917007	1351.333008	22.006250	-26.766251	19.936874
117.608002	-342.575989	1511.640991	1.929375	-74.291878	42.021873
269.864014	-189.344009	1535.919067	23.143749	-42.328125	45.692501
166.712997	-298.045990	1355.237061	18.396875	25.392500	58.292500
381.311005	-209.413010	1341.572998	33.149376	49.717499	15.146250
422.485992	-245.708008	1383.723999	23.270624	60.506248	42.923126
500.078003	-201.178009	1268.006958	1.456875	90.391876	58.441250
363.743011	-181.597000	1032.729980	-3.819375	112.166252	64.662498
189.344009	-94.245003	929.457031	15.378125	110.652496	38.845627
276.024994	27.328001	621.468018	8.579375	115.346878	39.038124
-229.665009	82.777000	331.291016	-7.958125	90.606247	30.874374
22.264999	107.420998	367.403015	-16.113125	88.020622	28.748125
-278.830994	80.459000	321.592010	-25.830000	69.969376	29.894375
-377.773010	91.927002	475.433990	-5.293750	31.701250	1.601250
-414.983002	130.235001	737.489990	4.869375	13.492500	-9.143750
-304.390015	100.284004	857.903992	19.271875	-0.455000	-13.164375
-311.527008	101.138000	907.497009	18.768749	-16.769375	-21.441875
-320.067017	175.802002	1023.397034	25.510626	2.117500	-42.835625
-262.544006	317.748993	1005.768005	46.178123	-26.355000	-48.111874
-274.195007	252.173996	1011.075012	66.018753	-29.715000	-45.819374
-163.968002	196.359009	918.171997	72.025627	-30.629375	-61.538750
-258.152008	214.171005	916.708008	60.344376	-20.055000	-60.510624
-213.561005	-89.792000	1078.114014	45.373123	-9.498125	-81.077499
-175.619003	0.976000	909.265991	14.249375	-19.722500	-76.107498
-361.608002	-221.613007	1109.833984	28.945000	-16.021250	-56.118126
-222.528000	-165.126999	1044.197998	41.715626	-31.320625	-70.411247
-241.804001	-289.993988	1093.669067	46.628750	-13.667500	-50.513748
-327.752991	-330.192993	1088.728027	26.136250	2.756250	-38.635624
-275.903015	-261.385010	978.195984	-0.511875	-13.483750	-39.970001
-295.362000	-159.880997	967.643005	-25.589375	-9.712500	-31.465000
-143.960007	-75.457001	893.101013	-24.316250	1.938125	-20.785625
-165.981003	-58.560001	700.096985	-20.825001	1.618750	-7.096250
-81.434998	-134.565994	452.985992	-50.666874	1.745625	-6.938750
-182.938995	-5.307000	389.545990	-58.730000	-26.508125	-8.264375
5.246000	-16.042999	386.618011	-43.898750	-46.563126	-6.002500
-127.917000	-174.947998	477.630005	-48.724377	-45.701248	6.916875
27.450001	-263.214996	891.454041	-52.561249	-92.019379	-18.388124
37.027000	-266.325989	944.950989	-62.422501	-111.378754	-17.228750
186.721008	-323.483002	1326.688965	-43.561874	-93.843750	-25.781876
91.987999	-274.377991	1430.693970	-0.927500	-42.035000	-29.238125
27.816000	-244.122009	1487.424072	8.054375	-86.336250	-32.847500
217.464996	-238.326996	1553.914062	-8.071875	-47.066250	6.803125
203.984009	-301.705994	1633.580078	1.260000	-11.768750	8.124375
173.972000	-243.145996	1303.692017	2.139375	22.150625	12.910625
80.886002	-292.921997	1062.071045	-8.588125	16.918125	4.348750
98.881004	-356.727997	1002.656982	-4.821250	9.537500	-14.126875
114.314003	-320.920990	898.468994	-0.161875	4.230625	-20.676250
199.165009	-372.100006	905.057007	7.730625	5.040000	-17.434376
127.306999	-426.207001	834.053040	12.096875	13.606250	-1.001875
161.223007	-514.778992	897.554016	26.670000	19.232500	0.997500
72.041000	-355.203003	885.415039	35.139999	12.753125	35.809376
84.302002	-321.287018	944.645996	38.657501	-11.016250	24.985624
264.800995	-276.085999	982.770996	26.123125	-11.668125	24.775625
150.121002	-178.059006	1015.528015	8.925000	-5.722500	39.873749
245.341995	-226.919998	1061.156006	-1.876875	-19.066250	47.582500
296.399017	-275.963989	1064.023071	-8.133125	-14.612500	47.993752
211.487000	-126.453003	1055.971069	0.358750	-12.656875	39.707500
388.265015	-143.350006	1134.478027	-7.940625	7.175000	52.981251
41.541000	31.537001	922.502991	-22.968750	-2.782500	44.953125
163.602005	274.256012	1043.466064	31.036249	1.330000	22.723749
62.159000	272.548004	1055.848999	29.006250	47.018124	43.264374
43.554001	237.656006	1065.853027	-18.506250	6.986875	38.421249
67.527000	104.614998	925.492004	-26.140625	-23.686251	21.805000
158.600006	71.492004	924.760010	-9.826250	-9.992500	2.043125
104.859001	-6.588000	937.325989	-14.218750	6.562500	10.723125
37.393002	-140.238998	1020.468994	-14.800625	-5.941250	6.794375
19.398001	-193.186996	1147.837036	0.450625	-11.305000	2.520000
56.303001	-247.477005	1392.508057	16.568125	-8.684375	-1.470000
-11.041000	-277.671997	1519.815063	8.006250	-4.952500	10.228750
167.445007	-287.309998	1621.807007	19.153749	10.815000	23.966249
127.673004	-124.135002	1385.797974	14.551250	81.129997	52.639999
54.351002	-182.572998	1446.310059	0.857500	66.132500	54.473125
315.492004	-62.708000	1364.082031	21.065624	51.301250	41.873123
329.278015	4.209000	1148.020020	40.893124	100.091248	48.645626
286.761017	19.642000	835.455994	12.005000	131.359375	54.009377
13.847000	16.348000	547.841003	0.905625	105.161873	46.589375
-55.570999	87.168999	333.059998	3.990000	92.172501	34.483749
-230.945999	111.203003	301.705994	-12.683125	59.526249	44.275002
-338.610992	91.377998	441.884003	5.709375	36.863750	19.547501
-473.177002	187.331009	557.112976	17.215626	-2.891875	-0.949375
-440.175995	213.988007	777.200989	16.349375	-6.724375	-19.989374
-322.019012	309.391998	941.535034	9.450000	-10.850000	-25.733749
-281.515015	337.940002	1015.161987	14.564375	-8.190000	-24.180626
-216.733002	343.490997	1101.233032	23.143749	-6.610625	-30.883125
-199.591995	398.390991	1015.955017	38.438751	-3.399375	-34.037498
-213.500000	345.565002	933.483032	41.877499	-1.439375	-47.271873
-120.779999	251.563995	976.122009	44.441250	-7.135625	-57.115623
-188.063004	221.796005	802.638000	40.293751	-19.048750	-70.144379
-185.195999	-207.888000	996.434998	11.510625	-21.262501	-78.360626
-503.433014	-360.265991	991.250000	11.278750	-16.891874	-72.445625
-336.963989	-478.789001	1015.833008	13.313125	-7.634375	-71.115623
-385.641998	-387.350006	936.106018	16.695000	-22.876875	-63.931873
-454.632996	-298.167999	929.335022	14.647500	-3.850000	-56.231876
-282.795990	-256.566010	846.679993	1.299375	-6.982500	-41.641251
-299.265991	-87.108002	625.616028	3.596250	-11.357500	-28.433125
-202.581009	-145.850998	525.515015	-4.165000	-11.545625	-13.838125
-185.928009	-83.692001	401.746002	-25.843124	-37.025623	7.008750
-146.522003	-350.018005	512.400024	-46.939377	-31.941875	-1.251250
-56.242001	24.034000	444.140991	-55.072498	-76.807503	-25.077499
21.716000	-167.505997	711.931030	-32.003124	-60.571877	-10.058125
-81.679001	-213.134003	900.604004	-35.853127	-89.004997	-32.685623
361.912994	-483.791016	1473.028076	25.965626	-87.841248	-46.213123
-82.654999	-315.003998	1704.462036	23.012501	-11.134375	-23.891874
-10.614000	-258.700989	1763.021973	-18.939375	-71.045624	-35.301876
-48.373001	-82.899002	1673.779053	-57.872501	-83.746246	-12.083750
25.864000	-229.908997	1522.743042	-43.535625	-39.484375	-5.320000
12.200000	-254.370010	1130.940063	-2.415000	1.531250	3.255000
117.730003	-199.408997	1158.878052	4.541250	-9.800000	-9.528750
141.947006	-216.794006	1102.941040	2.607500	2.900625	-2.388750
115.229004	-222.466995	1038.708008	3.766875	-3.740625	0.345625
123.037003	-204.044998	1001.192993	5.512500	2.555000	3.683750
121.756004	-252.417999	955.992004	4.313750	2.905000	4.991875
136.639999	-243.085007	950.989990	6.868750	-1.233750	4.318125
61.366001	-208.803009	945.195007	13.321875	4.865000	2.454375
133.589996	-146.033997	1004.426025	11.480000	-4.331250	-3.141250
132.003998	-205.447998	989.298035	2.738750	-1.386875	9.751875
168.787003	-286.212006	998.997009	14.210000	-16.664375	-2.533125
82.654999	-379.907990	910.424988	20.094376	8.911875	14.673750
146.033997	-499.773010	955.015991	30.296875	9.327500	20.138124
54.900002	-494.404999	852.718994	42.809376	16.187500	28.643126
-41.602001	-470.737000	874.557007	38.408127	0.201250	29.496250
215.635010	-473.115997	1214.388062	31.395000	-22.785000	20.693750
18.361000	-210.328003	1030.290039	21.223125	7.476875	30.161249
276.878998	-250.160995	1092.998047	-10.154375	6.448750	37.467499
124.988998	-144.082001	1070.000977	-35.826874	-4.077500	45.097500
365.268005	103.211998	1208.958984	17.176250	6.536250	22.706249
104.737000	285.968018	880.229980	6.685000	9.695000	42.542500
193.369995	236.680008	859.367981	-5.219375	15.316875	51.156876
126.758003	259.799011	908.595032	-26.285000	-12.534375	52.517502
130.356995	260.713989	983.197998	0.984375	-6.409375	41.111874
192.882004	176.716995	1107.150024	6.391875	12.871250	35.564377
70.028000	157.867996	992.531006	-9.957500	-2.292500	27.098749
90.341003	65.514000	1075.125000	-1.295000	-7.533750	14.328125
38.674000	-42.334000	1098.427002	-6.545000	-5.096875	6.728750
113.764999	-230.458008	1370.364990	-1.334375	-13.903750	9.485000
86.681000	-174.887009	1582.035034	7.564375	-15.977500	3.351250
77.653000	-209.962006	1479.677002	12.368125	23.590000	17.158751
219.600006	-145.912003	1574.593018	-5.643750	39.650623	39.799374
12.261000	-112.301003	1261.358032	3.399375	61.110001	55.098751
97.051003	-180.011002	1204.078979	17.023125	63.472500	34.286877
-31.354000	-127.185005	1114.286987	13.728750	76.015625	32.147499
64.721001	-58.132999	1044.747070	10.937500	77.266876	26.359375
4.636000	-29.524000	901.945984	24.591875	103.963127	24.456249
-104.188004	-0.244000	765.367004	18.488750	109.226250	31.867500
-104.188004	107.604004	419.313995	30.590000	51.384377	0.656250
-175.863007	75.762001	586.820007	3.710000	58.152500	15.618750
-286.821991	85.339005	524.234009	-12.333125	43.474377	9.699375
-362.218018	68.442001	542.595032	-7.481250	29.995001	3.670625
-449.875000	29.097000	657.518982	0.516250	29.063126	2.445625
-423.950012	31.720001	691.679016	2.156875	10.233125	-3.290000
-486.291992	51.910999	805.992981	3.036250	3.421250	-4.978750
-459.208008	179.889008	942.694031	2.117500	1.010625	-7.030625
-499.407013	263.825012	1034.682007	3.727500	-0.643125	-5.460000
-302.498993	270.535004	1087.874023	-3.613750	5.197500	-3.360000
-394.914001	270.962006	864.919006	-9.270625	-9.467500	-7.039375
-325.557007	238.876007	883.463013	4.318125	-15.881250	-27.575624
-323.117004	197.822998	754.020996	21.249374	-17.014376	-42.406876
-210.022995	-3.782000	887.244995	30.555000	-1.330000	-58.270626
-439.505005	116.022003	730.414001	45.097500	-19.232500	-65.708122
-267.179993	0.915000	765.611023	52.578751	-41.509998	-72.721252
-348.188019	122.366005	850.278992	27.768126	-47.608749	-70.778748
-273.524017	-53.070000	902.372986	18.186874	-58.673126	-66.136871
-99.247002	-201.666000	989.419983	13.724375	-53.755627	-80.828125
-314.760010	-315.735992	1153.815063	36.850624	-39.808125	-65.712502
-295.666992	-426.511993	1066.463013	39.794998	-31.508751	-49.240623
-225.516998	-285.235992	1142.164062	13.737500	-31.198126	-42.188126
-267.363007	-103.334000	1028.155029	-0.288750	-8.203125	-21.678125
-204.960007	-164.822006	857.903992	1.509375	-8.728125	-10.036250
-193.003998	-23.668001	725.473022	-6.571250	-15.421875	-10.154375
-87.473999	29.707001	588.650024	-11.571875	-17.338125	-5.801250
-63.989002	-20.496000	407.541016	-14.148750	-18.900000	-0.651875
-48.922001	31.049000	375.638000	-26.958750	-41.890625	-2.231250
-29.463001	-40.687000	749.812012	-33.845001	8.583750	-7.577500
90.524002	-119.194000	937.082031	-75.070625	-61.223751	-6.597500
217.343002	-280.050995	1044.442017	-83.440002	-68.464378	8.811250
-50.142002	-347.334015	982.710022	-81.930626	-83.728752	-14.791875
298.717010	-403.393005	1183.034058	-37.681873	-114.655624	-34.873123
157.014008	-490.378998	1262.089966	-13.973750	-94.749374	-20.545000
340.257996	-427.122009	1521.583984	30.983749	-91.070000	-26.621876
273.768005	-151.035995	1493.341064	61.915001	-58.887501	1.268750
276.513000	-180.925995	1374.390991	52.793125	-52.276875	-6.680625
306.281006	-57.889000	1187.730957	29.325624	-12.486250	5.005000
344.101013	-93.330002	1138.869995	9.791250	-11.624375	-2.821875
403.332001	-122.732002	1073.112061	-5.460000	-2.183125	3.381875
322.567993	-229.238007	989.481018	-4.655000	12.643750	7.091875
344.710999	-289.384003	1000.156006	-2.310000	17.307501	3.031875
373.442017	-366.000000	1011.257996	-0.927500	22.351875	9.362500
273.341003	-422.669006	886.085999	8.124375	34.479374	22.452499
189.893005	-449.265015	746.518005	26.932501	41.623749	12.538750
209.901001	-358.558014	790.682007	35.616875	29.421875	4.541250
282.795990	-277.001007	1022.665039	20.256250	9.397500	10.591875
158.477997	-223.382004	1003.694031	0.017500	31.906876	42.665001
299.265991	-268.399994	1014.186035	-20.632500	-0.809375	45.421249
353.494995	-176.900009	919.026001	-19.289375	-34.650002	56.393749
345.442993	-98.942001	933.666016	-13.063750	-12.394375	54.634998
396.927002	49.105000	928.786011	-28.914375	-43.286251	39.458126
342.515015	204.106003	952.148987	-8.548750	-33.044376	46.309376
400.891998	137.250000	1170.223999	15.115625	-4.217500	39.825626
312.625000	263.703003	1143.688965	-0.713125	-19.250000	42.914375
184.585999	309.148010	990.273987	22.006250	-7.809375	28.008751
214.475998	89.792000	966.423035	0.936250	16.305626	27.181875
185.561996	55.875999	902.312012	4.103750	5.298125	13.203750
249.001999	-93.147003	923.479004	8.986250	-6.348125	7.087500
276.085999	-102.297005	1004.609009	4.615625	-10.412500	1.417500
197.884003	-169.091995	1002.473999	-4.029375	-23.419374	6.750625
183.000000	-148.779007	1116.483032	-1.955625	-36.675625	11.768750
301.766998	-258.029999	1328.458008	6.816250	-22.260000	15.089375
353.494995	-256.687988	1418.738037	16.043125	-12.075000	12.442500
394.487000	-245.464005	1514.020020	8.986250	10.215625	21.901251
366.122009	-332.328003	1433.622070	-8.146250	41.055000	58.983749
438.834015	-272.548004	1389.458008	37.336250	63.249374	37.848125
339.221008	-50.813000	1049.078003	65.056252	95.668121	25.948126
324.398010	-178.486008	1090.130981	53.283127	93.156876	35.170624
312.381012	25.132000	1056.154053	28.809376	116.423126	47.858124
430.110992	-28.853001	695.278015	40.363750	121.524376	48.098751
187.574997	-18.422001	476.410004	29.421875	135.148132	46.322498
-78.568001	101.260002	385.276001	9.362500	111.964996	40.503750
-181.719009	124.500999	354.776001	-2.865625	90.746246	19.512501
-241.804001	259.493988	422.181000	-2.550625	73.373123	4.786250
-430.050018	146.583008	525.393005	2.467500	30.830626	-3.338125
-350.322998	243.817001	674.354980	15.378125	1.085000	-19.088125
-355.569000	246.378998	760.364990	27.068125	-3.535000	-17.583124
-308.537994	282.856995	839.848022	32.860626	-12.954375	-32.042500
-264.252014	389.424011	883.890015	42.428749	-22.658125	-34.623749
-324.764008	291.397003	852.902039	34.881874	-18.755625	-28.122499
-202.641998	331.291016	853.145996	26.521250	-26.897499	-37.016876
-228.688995	269.498016	926.101990	24.692499	-39.296249	-44.725624
-69.600998	240.339996	944.158020	25.917500	-33.442501	-54.643749
-144.143005	64.050003	1056.337036	40.731251	-29.430626	-64.728127
-63.500999	69.600998	1087.020020	19.897499	-42.279999	-66.828125
-198.555008	12.627000	1175.469971	21.227501	-36.846249	-62.488125
-79.483002	-73.016998	1192.427979	4.086250	-11.073125	-83.146873
-205.082001	-67.649002	1077.077026	-10.990000	-10.338125	-61.893124
-352.519012	-232.714996	1123.619995	-10.351250	-2.489375	-56.249374
-343.735016	-253.516006	1081.103027	-14.363125	-11.904375	-57.198750
-326.106018	-294.812988	1088.666992	-6.116250	-4.777500	-50.058750
-319.091003	-274.195007	966.117981	3.045000	5.547500	-36.697498
-238.693008	-81.496002	626.653015	1.369375	5.341875	-20.693750
-231.373001	19.215000	526.734985	1.863750	-5.971875	-21.319374
-129.746994	2.562000	453.291016	15.885625	-28.078751	-11.978750
-193.736008	-20.313000	567.726990	-0.166250	-36.238125	7.389375
-67.282997	-119.987000	507.276001	-21.901251	-32.873749	5.451250
37.209999	5.002000	745.725037	-34.816250	-77.761253	-12.385625
91.195000	-11.956000	809.713989	6.715625	-46.808125	-20.580000
53.253002	-13.542000	1092.937012	-2.716875	-18.287500	1.487500
32.635002	15.738000	973.621033	-43.973125	-79.423752	19.228125
5.307000	-8.723001	1272.399048	-7.831250	-44.668751	-3.154375
97.966003	-69.052002	1817.373047	-49.918751	-42.345627	3.749375
144.203995	-158.660995	1725.690063	-47.604374	-33.792500	-2.703750
158.966003	-214.415009	1632.969971	-30.240000	-16.900625	-7.923125
76.189003	-202.276001	1390.983032	-6.737500	11.436250	-11.606875
88.450005	-202.886002	1170.223999	-7.896875	13.645625	-4.978750
5.063000	-205.447998	1007.781006	-11.130000	18.501875	6.238750
39.101002	-255.468002	955.687012	-6.916875	16.712500	2.100000
119.987000	-272.670013	942.205994	-1.688750	14.975625	7.135625
-91.805000	-178.363998	798.367981	10.058125	10.985625	1.238125
50.020000	-348.248993	904.080994	12.936875	34.973751	26.862499
-8.357000	-394.059998	786.838989	3.823750	5.840625	28.021875
72.773003	-519.598022	1020.652039	-1.688750	3.272500	22.168125
-40.687000	-425.048004	867.419983	7.853125	-6.803125	13.444375
240.645004	-488.244019	1081.895996	6.912500	-23.957500	31.771250
69.417999	-426.634003	1025.104980	0.441875	-9.454375	44.139374
40.138000	-202.459000	920.307007	10.985625	-1.360625	37.953125
281.393005	-188.367996	992.165039	6.335000	-34.278126	46.886875
183.854004	-79.788002	1149.484009	3.460625	-3.666250	41.855625
229.482010	94.733002	1016.260010	-5.858125	10.661875	37.904999
70.882004	128.649002	1154.608032	-24.976875	-5.932500	42.336876
217.343002	185.928009	1141.432007	-9.765000	-7.533750	14.236250
146.949005	219.234009	977.890991	-8.439375	-28.835625	23.248751
43.859001	243.329010	1020.652039	5.293750	8.456875	21.748125
105.529999	180.925995	994.971008	2.012500	-9.183125	15.680000
75.517998	99.795998	920.002014	-4.620000	-2.091250	20.601875
74.419998	-31.415001	1019.492981	8.557500	0.577500	8.850625
63.989002	-98.209999	1022.421021	2.432500	-16.616249	8.028125
104.614998	-169.641006	1017.723999	9.708125	-13.409375	-1.925000
57.096001	-249.246002	1335.473022	2.104375	-5.057500	9.082500
-33.672001	-335.317017	1499.807007	-8.850625	13.527500	15.478750
-99.674004	-264.434998	1518.594971	-14.726250	2.957500	-13.251875
209.962006	-122.549004	1534.881958	1.146250	-41.820625	-3.565625
121.939003	-265.959991	1584.841064	-34.396252	18.711876	45.784374
130.600998	-217.160004	1480.042969	-4.125625	36.430626	36.990623
155.367004	-240.156998	1205.299072	31.863125	75.197502	27.790001
271.144989	-208.986008	1187.791992	35.581875	110.599998	36.767502
238.632004	-185.867004	960.445007	37.559376	114.296875	47.853748
-2.257000	-56.547001	663.802002	29.316875	83.881874	67.283127
-159.820007	-31.659000	516.121033	27.356874	70.236252	54.341873
-44.469002	19.337000	494.527008	24.272499	50.505001	35.717499
-315.796997	47.458000	438.407013	12.971875	37.528751	23.633751
-232.471008	111.020004	514.229980	2.598750	42.301876	20.549376
-495.808014	37.393002	479.947998	8.614375	36.824375	12.718125
-304.450989	143.837997	558.150024	12.705000	19.735624	-7.371875
-404.490997	91.195000	743.955994	3.351250	19.718124	4.326875
-446.459015	221.735001	777.262024	-9.563750	6.308750	-1.736875
-449.692017	357.947998	899.932983	-4.169375	-5.748750	-7.249375
-382.165009	390.888000	936.044983	29.736876	-17.167500	-30.961876
-274.622009	408.578003	896.273010	32.388126	-18.108126	-46.379375
-278.282013	361.485992	991.005981	22.859375	-20.037500	-53.711876
-192.089005	371.184998	870.043030	18.256874	-17.972500	-59.556873
-214.537003	102.053001	1048.895020	-9.747500	-19.004999	-46.983124
-170.556000	148.962006	1059.692017	-1.754375	-29.461250	-49.551250
-250.100006	-169.275009	1113.311035	33.858124	-17.150000	-62.798752
-278.098999	-54.595001	1046.027954	33.818748	-36.176876	-58.533127
-294.873993	-115.412003	956.419006	53.886875	-38.902500	-60.388126
-246.988998	-235.520996	881.816040	43.671249	-22.964375	-32.847500
-519.903015	-288.957001	977.768982	11.322500	-17.342501	-34.540627
-269.619995	-253.333008	1066.890015	-13.807500	-31.959375	-34.404999
-371.429016	-159.820007	977.768982	12.814375	-17.928749	-48.803123
-285.053009	-142.496002	928.786011	18.405624	-3.031875	-47.158127
-299.998016	-94.306000	871.751038	3.241875	-10.443125	-26.245625
-253.638000	-4.270000	776.286011	-5.481875	-12.040000	-21.293125
-130.783997	-76.311005	662.155029	-9.782500	-1.155000	-16.883125
-218.319000	147.559006	410.041992	-10.762500	-23.506874	-19.788124
-63.257000	45.383999	531.492981	-36.806873	-46.716251	-16.813126
-214.415009	136.639999	408.334015	-48.951874	-78.601250	-4.130000
89.609001	-196.481003	922.625000	-55.068127	-69.019997	-31.010000
316.589996	-143.533005	1025.348999	-70.730621	-97.361252	-30.008125
175.802002	-327.692017	1163.270020	-37.550625	-65.358124	-33.061874
345.015991	-310.002014	1231.773071	-15.207500	-19.145000	-18.659374
35.868000	-236.557999	1143.688965	-5.333125	-42.800625	-3.924375
285.358002	-318.907990	1597.285034	4.703125	-30.244375	-4.326875
65.758003	-255.468002	1413.248047	-0.323750	-12.543125	11.191250
227.102997	-128.404999	1469.672974	20.269375	-61.398750	12.919375
43.554001	-56.913002	1288.015015	5.040000	-9.253125	15.076250
166.042007	-174.643005	1223.416016	-7.507500	-6.925625	14.875000
118.828003	-116.144005	1055.848999	-5.915000	5.753125	3.850000
141.947006	-128.953995	989.298035	10.793125	7.113750	-3.434375
187.026001	-210.572006	1002.840027	5.092500	2.222500	0.770000
158.234009	-197.639999	928.359009	-4.270000	-9.025625	0.953750
204.960007	-314.821014	944.890015	3.508750	0.586250	5.083750
222.955002	-401.563019	948.489014	9.988125	1.194375	11.361875
175.313995	-345.199005	886.817993	19.385626	-17.180626	20.606251
146.705002	-349.347015	907.130981	32.042500	3.548125	31.758125
183.915009	-247.477005	1024.494995	24.316250	0.542500	35.647499
251.380997	-272.243011	1135.759033	11.930625	2.375625	43.863750
150.365005	-198.128006	1063.535034	-10.036250	11.873750	44.791248
307.440002	-235.154999	1187.670044	-34.978127	-4.738125	44.476250
271.084015	-240.218002	978.501038	-51.677502	-14.586250	61.788124
320.554993	-116.998001	1018.517029	-22.785000	5.915000	21.039375
366.122009	145.302002	1032.852051	-2.078125	21.201250	3.355625
231.861008	174.703995	978.135010	18.812500	21.056875	24.521875
133.589996	287.554016	984.479004	-3.395000	6.982500	32.676876
28.731001	14.457000	932.263000	7.910000	13.138125	47.512501
77.775002	92.475998	965.569031	29.863750	13.685000	22.540001
87.778999	105.896004	998.082031	34.378750	7.061250	10.648750
38.796001	67.892998	1041.635986	15.596875	-8.334375	9.288125
57.278999	-27.694000	1250.805054	2.148125	-4.081875	10.101875
99.552002	-168.481995	1362.191040	-25.939375	-45.806252	9.030000
76.920998	-152.500000	1648.890991	4.116875	-3.985625	20.689375
-17.080000	-209.413010	1434.659058	34.825001	11.558750	21.870625
163.846008	-83.204002	1350.052002	16.454374	16.900625	15.242500
160.186005	-171.471008	1301.374023	11.366250	18.046875	17.674999
378.566010	-45.993999	1434.049072	12.486250	57.951248	38.491249
96.380005	-86.681000	1070.000977	15.754375	95.488747	40.254375
60.756001	35.014000	1069.329956	13.650000	76.033127	48.173126
159.393005	-78.995003	1032.669067	20.785625	105.883751	37.143749
93.818001	102.113998	856.622986	14.783125	95.698753	25.449375
-99.369003	56.852001	571.875000	6.046250	111.838127	29.881250
44.591000	100.650002	469.639008	-0.853125	79.953125	19.713751
-297.679993	148.108002	326.716003	5.153750	78.623123	1.942500
-436.882019	100.405998	441.213013	-23.266251	11.830000	15.207500
-463.904999	27.511000	632.630981	0.288750	19.123125	1.780625
-359.533997	127.917000	682.285034	11.086250	-7.415625	-10.298750
-470.188019	96.746002	758.962036	13.846875	-12.241250	-19.621876
-370.087006	197.578995	904.691040	9.940000	-15.522500	-19.127501
-361.303009	215.451996	902.556030	11.598125	-28.056875	-10.815000
-361.364014	250.893005	1002.778992	25.606874	-12.569375	-24.421249
-195.444000	353.494995	930.677002	16.524376	-41.895000	-10.570000
-320.006012	274.865997	928.541992	19.503750	-31.801874	-8.570625
-144.264999	263.032013	994.239014	19.328751	-45.233124	-46.965626
-177.266006	298.595001	975.145996	34.286877	-37.629375	-71.583748
-6.222000	260.653015	967.033020	37.095627	-32.554375	-83.479378
12.261000	265.899017	1026.141968	26.350624	-31.508751	-67.296249
23.912001	11.041000	1016.199036	29.434999	-24.801874	-70.835625
-18.726999	9.028000	1048.956055	-9.235625	-47.241249	-72.480621
-45.323002	-114.436005	1089.643066	-16.961876	-33.201874	-60.173752
-148.291000	-317.200012	1091.290039	-20.510000	-25.252501	-66.394997
-113.521004	-428.097992	1151.924072	-23.240000	-21.638750	-76.234375
-87.291000	-331.535004	1032.852051	3.644375	-1.531250	-60.987499
-107.237999	-273.157990	874.984009	4.956875	4.659375	-35.743752
-158.904999	-187.087006	847.838989	-1.391250	8.128750	-23.834999
-68.807999	-93.818001	719.434021	-13.597500	-6.278125	-17.937500
-32.879002	-99.612999	751.031982	-23.708124	-14.923125	-16.550625
-35.868000	-65.209000	604.692993	-7.013125	-3.447500	-10.036250
-84.057999	-98.942001	496.052002	-4.830000	-16.769375	-11.230625
-104.188004	-87.718002	515.388977	-22.014999	-47.376877	-3.920000
-30.134001	-117.608002	486.779999	-22.185625	-56.507500	-18.934999
178.059006	-39.894001	807.762024	-18.751249	-72.804375	-42.516251
236.802002	-203.862000	991.859985	-43.347500	-48.969376	13.798750
211.852997	32.146999	1060.850952	-1.378125	7.966875	9.572500
116.875999	-508.252014	1485.776978	6.689375	-29.745625	-5.083750
211.669998	-39.955002	1571.786987	8.063125	-83.553749	-31.683750
149.572006	26.779001	1492.914062	41.702499	-45.548126	-12.691875
277.610992	-225.578003	1750.029053	34.107498	-36.868126	-2.393125
124.562004	-44.408001	1425.936035	3.141250	-4.335625	6.671875
116.815002	-24.705000	1191.208008	16.148125	0.468125	-7.704375
196.419998	3.416000	1124.962036	12.451250	-3.718750	-5.840625
224.846008	-134.992996	950.441040	-19.893126	3.443125	7.774375
246.988998	-86.863998	952.088013	-12.311250	-8.198750	-0.984375
259.372009	-166.408005	900.848022	-1.728125	-0.306250	7.931875
245.341995	-312.381012	1024.556030	11.742500	4.283125	10.141250
189.770996	-267.790009	917.074036	12.941250	5.022500	12.438125
215.513000	-307.013000	950.929016	13.728750	1.185625	15.400000
245.098007	-378.748993	955.199036	21.096251	1.833125	12.560625
250.770996	-235.887009	927.627014	29.876875	14.542500	7.293125
192.943008	-188.612000	924.150024	26.503750	23.130625	24.150000
304.634003	-95.891998	1162.598999	-15.163750	-11.698750	20.374374
264.069000	-46.299000	1179.984009	-36.990623	3.985625	48.164375
493.612000	-285.053009	1265.688965	-65.480621	29.312500	74.160622
102.723999	-157.563004	852.596985	-40.700626	-6.628125	61.971874
373.747009	-33.793999	1147.044067	-8.386875	5.302500	33.648125
217.038010	251.380997	847.411987	4.751250	-23.410625	35.314999
93.330002	332.877014	944.585022	14.901250	-2.940000	33.175625
211.852997	370.087006	909.388000	-7.577500	-6.728750	39.698750
100.528000	232.288010	904.874023	-2.598750	8.771875	38.718750
135.725006	126.575005	930.921021	-0.735000	14.603750	27.308750
89.059998	-29.036001	994.666016	15.058750	8.990625	5.674375
82.411003	-149.876999	1069.696045	10.416875	-1.754375	5.346250
129.930008	-181.902008	1116.544067	8.645000	-14.258125	0.980000
181.109009	-285.175018	1187.853027	10.850000	-13.746250	6.606250
121.024002	-235.764999	1245.131958	19.193125	-5.320000	13.702500
197.152008	-167.078995	1298.506958	18.790625	32.318127	17.451876
173.179001	-171.897995	1469.124023	0.673750	6.628125	26.241249
74.237000	-66.734001	1371.890015	-2.406250	30.966249	26.836250
122.610001	-187.697006	1468.818970	-2.082500	-14.210000	27.794374
-170.190002	-217.160004	1303.692017	0.866250	54.333126	43.798126
128.649002	-26.047001	1111.968994	8.596875	87.049377	47.726875
16.104000	-166.408005	1015.406006	17.736250	67.808128	23.870001
-23.241001	-199.470001	921.954041	8.623125	83.199371	8.981875
-100.284004	45.139999	883.950989	-9.537500	121.559372	4.742500
-2.135000	-44.957001	731.207031	-17.793125	96.123123	7.315000
-244.792999	89.426003	538.934998	-2.296875	54.123123	5.477500
-131.210999	89.059998	516.609009	-0.783125	67.799377	32.081875
-170.738998	28.059999	397.292999	5.363750	40.188751	26.604376
-367.037018	22.814001	538.385986	0.004375	13.243125	10.250625
-405.467010	6.588000	653.492981	14.870625	-15.071875	-8.360625
-435.783997	104.371002	864.065002	15.054375	-25.891251	-14.516250
-400.953003	212.402008	936.960022	16.170000	-25.169374	-21.625626
-312.320007	137.921005	1018.273010	18.003124	-4.488750	-19.184376
-197.091003	272.914001	1086.593018	4.051250	-18.996250	-9.629375
-286.151001	211.304001	987.163025	11.025000	-27.864374	-9.550625
-164.944000	191.906006	1077.992065	18.410000	-5.250000	-28.148750
-196.542007	173.240005	1027.484009	12.276250	-23.231251	-35.262501
-121.267998	79.422005	1057.495972	11.536875	-6.549375	-44.664375
-47.945999	12.993000	1010.770020	21.520624	-10.202500	-16.226875
-254.736008	-33.793999	911.889038	22.356251	6.479375	-44.751877
-159.942001	-77.592003	999.790039	14.848750	-14.678125	-77.756874
-120.597000	-232.776001	1032.364014	-22.553125	-31.163124	-65.887497
-371.734009	-333.243011	970.876038	-12.346250	8.828750	-53.042500
-183.488007	-564.737976	1012.112000	-3.128125	2.922500	-62.216873
-260.958008	-507.032013	996.130005	1.776250	-6.645625	-41.041874
-320.738007	-514.169006	1030.473022	26.389999	9.668750	-41.028751
-200.201996	-321.897003	953.918030	24.399376	1.220625	-37.152500
-224.846008	-157.136002	782.690979	-2.664375	7.848750	-5.123125
-251.747009	-74.359001	695.095032	-11.742500	0.074375	3.425625
-165.859009	-49.348999	660.996033	-11.213125	-9.353750	13.943125
-146.095001	-35.380001	479.643005	1.308125	-10.027500	4.965625
-103.700005	61.305000	356.239990	-4.449375	-31.053749	0.717500
-18.971001	-16.958000	410.102997	-20.103125	-47.057499	-2.642500
43.798000	-75.457001	321.653015	-37.012501	-57.439377	1.938125
123.890999	-70.943001	521.916016	-45.626877	-91.078751	-1.190000
233.507996	-434.502991	710.588989	-61.328751	-90.138123	22.618750
143.777008	-367.769012	1500.416992	-29.360624	-70.284378	-10.430000
232.531998	-365.511993	1935.530029	27.186251	-88.541252	-32.935001
388.570007	-121.512001	1932.602051	35.945000	-96.455627	-21.761250
286.516998	-69.723000	1653.466064	26.166876	-61.617500	11.987500
392.962006	100.528000	1549.461060	30.769375	8.977500	19.665625
133.285004	-10.370000	1274.473022	18.287500	46.309376	28.358749
30.683001	-81.434998	1119.105957	-10.591875	27.173124	18.265625
180.316010	-75.212997	1046.942993	-20.733126	14.879375	4.086250
125.355003	-133.651001	936.228027	-9.651250	24.736250	-0.529375
173.362000	-54.534000	911.767029	2.620625	7.840000	-17.106251
185.378998	-105.529999	902.983032	-5.241250	11.598125	-0.888125
219.904999	-189.770996	938.729004	-1.347500	4.130000	3.040625
144.082001	-352.031006	920.734009	-0.341250	15.168125	15.146250
-31.110001	-489.342010	964.044006	7.393750	3.845625	10.246250
153.231995	-506.056000	1037.975952	8.456875	-8.645000	5.648125
-21.960001	-497.089020	837.286011	7.695625	6.759375	12.201875
211.548004	-449.204010	931.470032	12.201875	-11.834375	2.384375
312.381012	-325.130005	890.661011	0.892500	-23.436874	-0.148750
232.166000	-232.531998	905.606018	-0.870625	-3.631250	19.796875
359.838989	-266.325989	1211.155029	9.471875	-9.909375	23.498125
462.075012	-39.161999	1199.442993	-20.405001	-12.700625	54.013748
309.514008	125.355003	865.528992	-27.545000	-26.341875	47.985001
327.752991	332.877014	937.692017	-6.050625	16.401875	26.070625
212.219009	355.080994	914.450989	-6.514375	-5.853750	28.861876
180.559998	234.910995	1009.794006	1.338750	3.578750	28.826876
148.596008	165.737000	1001.924988	0.879375	-4.462500	18.803749
129.442001	37.453999	1044.563965	5.700625	-9.301250	11.151875
203.984009	-68.381004	1090.680054	20.803125	-9.296875	1.841875
246.074005	-154.391006	1199.625977	21.035000	0.376250	12.022500
274.438995	-186.111008	1238.544067	-5.442500	-18.497499	17.163124
155.001007	-204.472000	1168.821045	-5.075000	4.742500	23.253124
124.562004	-166.835007	1203.834961	3.517500	-1.496250	13.580000
296.093994	-198.860001	1291.979980	13.479375	-12.766250	10.863125
338.306000	-133.041000	1384.700073	21.927500	23.537500	17.084375
446.641998	-138.531006	1500.782959	-10.548125	50.911877	53.440624
244.975998	-107.970001	1199.931030	-13.890625	84.039375	69.684998
87.473999	-213.195007	1111.237061	-1.238125	93.296875	48.391876
98.332001	-142.434998	1040.354980	8.045625	63.030624	41.081249
225.334000	-136.945007	976.915039	51.205002	83.479378	19.963125
127.856003	-72.834000	801.661987	25.094999	71.443748	31.998751
-59.902000	-20.069000	654.346985	8.225000	82.057503	40.136250
-46.237999	15.555000	411.322998	2.353750	66.058128	29.356251
-251.197998	63.684002	454.450012	7.608125	51.878750	17.097500
-284.748016	32.330002	459.757019	10.447500	31.539375	8.391250
-296.765015	59.779999	584.135986	4.449375	13.654375	9.559375
-322.140991	62.281002	745.968994	-4.248125	8.496250	1.461250
-342.697998	163.541000	841.617004	-10.486875	0.262500	-1.365000
-334.097015	176.656006	939.705017	-4.882500	1.137500	-7.844375
-226.554001	238.022003	1067.195068	1.841875	-13.947500	-31.316250
-305.488007	275.537018	1006.377991	16.883125	-10.539375	-46.169376
-101.198997	272.304016	1188.890015	33.499374	-15.435000	-50.181252
-47.763000	224.723999	1092.875977	11.589375	6.090000	-13.798750
-323.605011	149.206009	989.237000	23.397499	8.443750	-53.681252
-98.637001	280.050995	972.462036	9.511250	-23.213751	-95.921875
47.885002	199.591995	1008.390991	-1.986250	-13.536250	-74.029373
-186.294006	-95.770004	930.005981	21.713125	12.013750	-81.948128
-36.112000	-138.165009	959.041992	17.587500	-17.723125	-83.763748
-413.458008	-562.481018	949.708984	5.635000	-0.971250	-53.156250
-285.296997	-439.809998	910.913025	-3.539375	-24.145624	-49.131248
-206.302002	-420.229004	898.346985	7.892500	0.787500	-28.586250
-317.809998	-312.075989	763.415039	9.699375	-2.537500	-20.820625
-184.768997	-292.860992	829.416992	-8.382500	-12.503750	-13.168750
-258.457001	-181.109009	740.479004	-9.397500	-11.698750	-12.683125
-171.348999	-98.149002	650.442993	-5.810000	-27.247499	-16.760626
-91.744003	-66.246002	599.630005	-2.143750	-28.231874	-3.556875
-74.542000	-134.382996	541.862976	-0.376250	-31.115000	-11.134375
49.653999	-158.904999	750.483032	11.659375	-47.543125	-40.166874
140.483002	-179.949997	787.327026	4.738125	-29.846251	-39.856251
172.630005	-8.174000	666.791016	-34.313126	-42.770000	-5.700625
-54.351002	-34.465000	547.596985	-64.041252	-83.553749	7.778750
200.018997	-113.094002	985.455017	-61.788124	-107.922501	23.205000
380.884003	-261.873016	1364.875000	-29.268749	-125.273750	-23.126249
412.726013	-453.291016	1718.369995	-0.380625	-112.161873	-7.743750
230.031006	-317.688019	1942.789062	24.718750	-47.503750	-39.711876
279.075012	12.139000	1482.604980	36.780624	-37.064999	-23.419374
282.002991	-52.948002	1392.691040	41.383125	9.051875	5.713750
256.809998	-72.285004	1165.526978	19.691875	38.644375	13.965000
193.369995	-18.849001	1049.993042	17.876249	40.372501	10.749375
232.227005	-91.072998	1058.899048	-0.603750	34.969376	20.203751
187.514008	-134.626999	927.992981	-14.415625	22.732500	18.900000
179.156998	-122.366005	861.807983	-3.504375	11.851875	7.083125
229.542999	-81.374001	932.385010	3.080000	9.458750	3.858750
150.425995	-96.989998	860.161011	-0.870625	9.034375	7.284375
178.729996	-224.968002	938.546021	-2.226875	4.917500	4.585000
172.934998	-249.673004	1025.593018	-4.602500	-4.926250	3.535000
122.610001	-358.558014	925.431030	-8.461250	-1.076250	19.788124
75.762001	-404.247009	906.947998	28.721874	16.625000	23.362499
179.218002	-455.670013	1012.356018	33.871250	20.343750	29.478750
171.227005	-357.032990	977.220032	8.028125	-0.218750	40.569374
128.404999	-294.752014	932.567993	3.066875	1.351875	36.968750
330.742004	-177.570999	1097.084961	-16.388750	-29.238125	26.809999
147.803009	-47.763000	1128.744019	-32.493126	-32.882500	27.151251
367.281006	-71.675003	1298.202026	-29.964375	-35.275623	21.284374
413.824005	115.412003	1226.893066	-20.125000	-50.889999	33.652500
259.127991	157.990005	1006.988037	-4.370625	17.303125	59.968124
286.639008	157.319000	902.739014	11.493125	-1.268750	31.202499
195.566010	92.232002	908.106995	14.883750	21.070000	27.930000
238.022003	48.617001	956.479980	14.608125	-4.790625	9.506875
184.037003	84.729004	902.983032	12.013750	-3.548125	7.748125
152.622009	-27.938000	1023.213989	-1.478750	5.241250	9.222500
139.324005	-86.681000	1044.869019	-3.180625	-19.726875	2.511250
220.393005	-126.453003	1074.453979	-0.713125	-22.014999	0.078750
156.526001	-121.939003	1130.756958	1.207500	-4.042500	4.869375
118.156998	-144.753006	1116.787964	19.088125	-4.891250	4.016250
270.596008	-200.385010	1361.031982	12.818750	3.381875	5.958750
148.839996	-161.466995	1416.664062	10.220000	18.760000	7.424375
335.134003	-126.209000	1528.477051	9.108750	-3.871875	23.708124
111.325005	-241.499008	1445.760986	12.648125	47.271873	35.157501
215.330002	-180.925995	1420.994995	-2.625000	87.272499	24.758125
108.092003	-140.361008	1321.687012	-6.068125	83.413750	31.745001
222.345001	-68.014999	1164.612061	13.190625	61.250000	25.265625
307.501007	32.635002	930.859985	21.323750	85.986252	20.654375
98.881004	59.779999	728.828003	4.462500	108.014374	35.936249
60.938999	-10.431000	541.802002	-3.093125	98.205627	44.738750
-119.987000	47.214001	413.580017	-10.329375	53.943748	17.968124
-210.694000	8.723001	460.062012	-15.715000	47.705002	2.410625
-297.985016	57.950001	489.464020	-17.106251	46.182499	5.880000
-370.087006	-109.250999	576.999023	-12.674375	34.343750	7.844375
-312.442017	-28.121000	695.216980	-14.424375	11.983125	2.410625
-427.915009	-94.306000	723.703979	0.376250	3.325000	-1.260000
-360.815002	-24.217001	916.281006	0.297500	-4.646250	-3.066875
-384.605011	46.177002	845.520996	5.604375	-5.958750	-0.638750
