A_X[mg]	A_Y[mg]	A_Z[mg]	G_X[dps]	G_Y[dps]	G_Z[dps]	
20.496000	-62.464001	1002.718018	0.853125	-0.192500	-0.940625
-120.658005	-49.348999	987.223999	0.708750	-0.800625	-1.295000
-101.931000	-58.499001	981.429016	-1.610000	-1.535625	-1.045625
-135.419998	-53.985001	984.723022	-1.999375	-4.160625	0.004375
-131.089005	-46.421001	1018.028992	0.993125	-3.395000	-1.745625
-151.035995	-78.812004	1013.575989	-1.898750	-2.515625	-1.820000
-225.029007	-65.270004	1023.397034	-1.898750	-2.515625	-0.455000
-225.029007	-65.270004	1024.921997	8.850625	-4.309375	-0.455000
-268.095001	-70.150002	1024.921997	20.956249	4.410000	-4.313750
-316.101990	-57.950001	1043.770996	14.354375	6.711250	-4.882500
-361.608002	-85.827003	1034.255005	-0.183750	0.301875	-4.344375
-392.473999	-97.783005	1043.039062	-9.686250	-19.560625	1.986250
-269.864014	-77.042999	1006.317017	1.203125	-1.631875	0.258125
-253.638000	-7.747000	938.119019	7.984375	-5.394375	-0.056875
-29.829000	-56.486000	1022.543030	5.289375	-17.355625	-3.465000
-99.979004	-11.224000	935.069031	26.459999	-4.904375	-1.203125
4.270000	47.214001	1060.302002	19.070625	-12.954375	1.920625
66.856003	10.309000	990.945007	9.205000	-21.608126	6.422500
8.723001	30.073000	1019.309998	-3.631250	-9.585625	6.663125
35.624001	-1.342000	866.749023	-9.555000	4.073125	3.027500
0.854000	12.078000	938.729004	2.314375	3.443125	9.638125
47.458000	1.159000	1056.824951	7.214375	-30.555000	-4.943750
180.011002	-38.491001	910.303040	16.703751	-22.929375	-12.477500
75.822998	119.499001	974.718994	18.458124	2.471875	-18.007500
288.895996	105.042000	994.117004	0.428750	-25.939375	-21.892500
410.041992	10.004000	946.231995	-18.615625	-24.412500	-11.309375
386.557007	60.329002	1085.433960	-29.592501	10.618125	-7.669375
247.904007	38.247002	1055.666016	-40.442501	4.151875	8.846250
173.240005	-45.445000	1009.794006	-41.391876	18.830000	15.535625
293.044006	-86.681000	1017.663025	-25.707500	-10.220000	19.963125
5.917000	-77.042999	977.158997	-11.318125	-2.073750	14.721875
198.311005	-9.333000	1034.437988	0.371875	7.857500	2.301250
-85.034004	-128.893005	847.900024	9.493750	-11.515000	8.789375
45.567001	-16.531000	1004.914001	25.226250	26.468750	-10.521875
234.667007	-51.118000	1025.348999	12.845000	11.392500	0.665000
-42.212002	-60.573002	865.346008	-27.593124	-21.109375	7.140000
231.800003	-64.903999	946.536987	-37.559376	-27.418125	3.815000
-124.806000	-218.867996	869.616028	-14.113750	-66.561249	14.879375
30.866001	-63.318001	1211.582031	9.712500	17.123751	4.025000
-29.889999	-40.564999	991.005981	25.725000	13.698125	8.684375
-82.289001	-158.539001	944.768005	-2.681875	7.721875	4.598125
59.170002	-130.417999	1059.020996	-0.538125	34.037498	0.091875
-242.597000	-86.132004	1037.792969	-5.451250	4.943750	2.550625
-59.902000	-111.934998	1007.354004	-15.076250	7.026250	-11.795000
-142.251999	-149.145004	1011.562988	20.973749	19.700624	-13.610625
-258.091003	-167.505997	911.156982	19.770624	1.903125	-12.451250
-132.492004	-109.678001	1088.301025	-1.452500	-8.242500	-6.107500
-198.738007	-124.195999	1009.671997	9.480625	-4.760000	0.026250
-171.897995	-90.219002	982.405029	15.566250	8.054375	-5.508125
-130.052002	-57.035000	1023.580017	8.596875	6.203750	-1.015000
-73.321999	-82.899002	1012.539001	-0.280000	-5.486250	1.557500
-33.489002	-70.760002	978.562012	-3.145625	-2.318750	-0.472500
-75.701004	-39.528000	986.553040	-10.373125	-8.833125	3.985625
-76.982002	-71.248001	951.234009	-17.766874	-15.290625	3.395000
-29.280001	-101.625999	1013.210022	-16.520000	-17.513124	2.533125
-119.743004	-113.277000	1034.133057	-2.633750	-13.081250	1.470000
-194.163010	-132.126007	976.915039	6.671875	-3.088750	-2.975000
-208.376007	-114.680000	1017.541016	7.306250	6.549375	-4.585000
-194.223999	-139.507004	979.965027	0.625625	0.511875	-3.447500
-149.328003	-158.112000	929.640015	-11.090625	-6.601875	3.521875
47.824001	-152.682999	1135.393066	-0.778750	-3.040625	5.560625
-233.874008	-85.095001	1040.171997	12.796875	6.873125	1.071875
-42.395000	-78.263000	1035.780029	-1.955625	5.420625	-4.423125
-57.340000	-68.747002	1024.129028	0.704375	-28.013124	3.968125
-86.986000	-83.082001	986.553040	3.241875	-14.595000	-2.257500
135.481003	-125.965004	1032.119995	20.925625	-3.101875	-8.933750
-28.975000	-20.984001	1014.674011	27.496876	-15.347500	-1.010625
73.749001	-50.020000	1054.750977	9.808750	4.720625	0.756875
253.943008	-120.474998	750.361023	-12.000625	-25.799376	14.236250
84.545998	-17.080000	950.257996	-2.353750	4.965625	9.231250
212.829010	51.667000	897.859009	16.834999	1.623125	-2.056250
242.779999	-103.456001	858.330994	8.960000	-0.988750	0.603750
111.325005	1.708000	965.630005	13.208125	23.130625	-10.123750
368.867004	-38.491001	936.960022	23.003750	-5.341875	-15.911875
412.970001	-15.067000	1014.796021	29.006250	-15.141875	-11.668125
317.200012	13.420000	1048.406982	11.978750	-12.263125	-13.120625
272.670013	59.414001	1048.346069	-12.586875	0.896875	-10.272500
245.768997	20.069000	1046.515991	-14.437500	7.691250	-4.580625
264.923004	-70.210999	1065.609009	-13.711250	5.083750	-0.980000
261.324005	-66.184998	1058.411011	-27.645624	8.185625	0.651875
299.692993	47.640999	1112.457031	-23.288124	10.570000	-0.210000
328.302002	-83.021004	960.567017	-21.638750	3.731875	-0.901250
349.713013	10.248000	944.645996	-26.958750	17.644375	1.680000
223.260010	-41.114002	835.700012	-42.678123	2.034375	2.515625
192.638000	-177.815002	737.124023	-33.184376	14.669375	-8.850625
56.547001	-69.417999	944.218994	1.820000	21.021875	-1.023750
-85.034004	-189.039001	729.194031	6.842500	-16.581249	1.911875
174.947998	-129.197998	1142.286011	18.357500	14.748125	0.516250
-155.977005	-73.139000	1009.611023	21.170626	-8.544375	10.661875
-83.814003	-114.741005	983.869019	23.100000	27.195000	-15.404375
-119.438004	-53.070000	1107.760010	27.282499	28.590626	-13.138125
-198.494003	-192.272003	806.846985	9.485000	-38.311874	-11.878125
-141.947006	-110.227005	1182.119019	10.521875	0.153125	-18.423124
-394.059998	-195.382996	955.442993	-1.277500	-14.704375	-9.432500
-310.062988	-194.834000	1033.339966	-21.433125	-36.505001	-4.121250
-253.393997	-143.410995	1145.519043	2.113125	1.955625	-4.847500
-258.945007	-114.802002	1045.479004	14.980000	28.371876	-9.913750
4.880000	-103.821999	1043.709961	6.689375	5.551875	-7.936250
108.823997	-98.514999	1072.989990	-0.266875	6.291250	-5.770625
37.758999	-73.504997	950.746033	-5.026875	13.120625	-1.172500
81.984001	-52.521000	976.976013	-11.528125	-2.747500	2.808750
66.856003	-56.973999	1004.669983	-11.528125	-2.747500	2.808750
66.856003	-56.973999	896.090027	-2.100000	-5.302500	2.957500
-52.643002	-64.965004	896.090027	4.668125	-2.913750	1.925000
5.124000	-68.564003	959.895996	4.208750	-11.620000	0.323750
69.967003	-68.564003	1067.865967	-0.052500	-9.813125	0.253750
41.236000	-111.081001	980.697021	-1.999375	-6.628125	-1.015000
74.969002	-122.427002	981.978027	3.268125	-3.259375	-4.528125
44.652000	-79.788002	1050.724976	2.620625	5.534375	-3.723125
24.766001	-93.330002	1001.254028	1.133125	8.596875	-4.830000
64.598999	-82.594002	1007.293030	7.560000	1.141875	-6.606250
56.181000	-87.230003	1028.276978	5.897500	-4.060000	-6.930000
-15.189000	-89.304001	951.966003	-1.111250	0.844375	-9.034375
-4.880000	-97.904999	1015.772034	-10.836875	-5.547500	-5.188750
-108.885002	-112.118004	1026.874023	-7.866250	-8.369375	-2.616250
-236.192001	-126.391998	1065.487061	-4.624375	-0.420000	-1.365000
-263.093018	-149.999008	1129.963989	4.825625	-3.478125	1.251250
-481.778015	-104.919998	1125.206055	14.997500	-1.780625	8.421875
-406.503998	-149.328003	1115.385010	-13.431250	-28.708750	16.813126
-66.246002	-213.012009	1016.199036	-3.150000	-32.541248	24.399376
-194.834000	-152.012009	1015.528015	50.697498	-26.530001	21.227501
-95.465004	35.624001	991.067017	52.255001	-12.118750	23.568125
-90.462997	-80.825005	853.145996	12.678750	-43.080624	39.606876
267.302002	16.531000	1034.193970	4.051250	27.020000	21.503124
312.320007	-35.929001	908.046021	20.807501	12.468750	-0.039375
309.880005	-4.392000	945.439026	15.338750	12.136250	-7.721875
393.145020	68.320000	919.453003	-11.221875	9.677500	-28.240625
570.411011	-48.007000	719.799988	-26.775000	-40.499374	-20.811874
598.044006	-46.726002	1052.921021	5.180000	-17.469376	-20.501249
604.083008	-96.746002	785.924011	43.684376	-12.512500	-28.083124
385.153992	185.744995	1116.117065	31.307501	28.748125	-16.467501
326.899017	105.286003	988.687988	-1.054375	30.629375	4.659375
202.520004	59.414001	967.033020	-16.161249	19.963125	11.182500
318.725006	16.042999	984.174011	-10.745000	22.098125	10.259375
78.507004	32.452000	969.411987	-2.712500	2.559375	13.881875
47.580002	38.735001	1079.943970	3.259375	-0.997500	0.122500
348.248993	-8.296000	959.346985	22.058750	22.535625	-4.086250
88.023003	-2.989000	895.236023	25.497499	6.986875	15.461250
62.525002	29.889999	936.166992	15.163750	11.637500	5.136250
303.718994	31.903000	948.671997	26.188749	20.496876	8.338750
-98.820000	67.282997	902.678040	9.384375	-10.233125	17.443125
94.488998	77.165001	975.634033	-3.381875	15.693125	-7.529375
-112.911003	-27.999001	794.525024	-20.706875	-7.818125	1.763125
-47.640999	96.746002	1092.571045	-9.471875	38.504375	-23.834999
-195.382996	115.717003	928.481018	-0.258125	50.286251	-31.819374
-165.554001	55.144001	1013.759033	-16.406250	-22.190001	-16.905001
60.817001	-45.201000	1075.307983	-4.501875	-4.983125	-14.612500
-83.692001	-68.137001	888.403992	-5.648125	-33.919376	-7.581875
-73.444000	73.993004	1183.156006	-14.043750	-48.203751	-4.742500
-31.598000	-59.963001	1129.171021	-2.533125	-33.201874	-6.461875
-122.122002	-30.378000	1135.759033	-13.072500	-18.895624	-4.895625
-108.458000	10.980000	1132.404053	-13.356875	-11.742500	-8.400000
-157.624008	-38.674000	1016.809021	-2.415000	-21.306250	-5.910625
-147.315002	-27.938000	1066.218994	-0.052500	-5.407500	-5.687500
-109.861000	-12.810000	1072.928955	10.810625	17.062500	-7.258125
-93.085999	-7.137000	1045.844971	4.738125	9.673125	-5.324375
2.257000	-25.254000	1020.713013	-4.856250	12.250000	-2.708125
39.833000	-25.375999	1018.455994	-9.086875	12.411875	0.787500
16.653000	-21.655001	1007.293030	-10.049375	9.948750	1.334375
30.866001	-39.528000	976.488037	-7.844375	5.748750	3.171875
-65.636002	-61.549000	906.033020	-2.747500	1.776250	5.201875
-69.662003	-43.371002	949.648010	-0.223125	-2.660000	6.203750
-148.718002	-39.833000	1003.510986	8.658125	-3.329375	7.441875
-273.402008	-50.325001	1010.098999	7.765625	3.893750	5.866875
-231.068008	-44.591000	1059.326050	-5.166875	6.116250	4.558750
-198.372009	-71.918999	1096.963013	-5.687500	19.600000	4.165000
-184.585999	-58.681999	1038.525024	-10.478125	32.396873	7.752500
-142.251999	-35.441002	1082.750000	-8.662500	22.316875	12.372500
-131.272003	-43.371002	1108.552979	-7.616875	10.360000	5.691875
-55.388000	-75.152000	903.166016	-1.343125	-3.110625	-1.260000
15.067000	-23.851000	966.239990	-6.269375	-22.150625	6.698125
178.669006	-135.419998	898.652039	5.871250	-3.513125	7.056875
80.093002	34.770000	1000.705017	14.573125	-29.006250	10.705625
164.639008	44.103001	1174.311035	22.806875	8.697500	-1.518125
425.170013	-41.174999	972.583984	20.479376	-24.850000	-8.076250
371.184998	9.333000	1006.012024	7.210000	-54.626251	-8.128750
554.124023	-91.805000	816.790039	21.748125	-15.570625	-10.381875
369.782013	60.756001	1090.802002	22.487499	13.405000	-1.334375
238.936996	105.408005	1052.555054	-0.730625	3.237500	0.949375
323.483002	58.438000	988.932007	-17.421249	13.269375	4.051250
160.490997	60.268002	1032.729980	-8.833125	15.238125	10.933125
113.704002	6.283000	983.807983	-11.440625	7.043750	12.298125
154.513000	-6.161000	1072.135986	-5.180000	8.102500	6.772500
147.070999	-1.403000	1034.376953	2.725625	19.691875	6.741875
160.552002	33.611000	1033.706055	0.052500	18.536875	5.989375
251.442001	-2.562000	993.751038	-7.931875	2.520000	7.476875
45.628002	12.444000	920.916992	-30.248751	10.416875	1.828750
118.096001	-96.868004	824.109985	-37.205002	12.950000	-11.948125
31.049000	-66.246002	842.837036	-19.993750	-25.873751	-14.717500
47.824001	-63.867001	929.945007	2.388750	14.520625	-22.124374
-122.366005	-75.334999	915.731995	8.216250	9.021250	-10.329375
31.232000	-74.298004	1018.639038	8.216250	30.073750	-21.905624
-296.338013	-88.571999	982.343994	16.397499	30.073750	-21.905624
-296.338013	-88.571999	982.343994	26.775000	36.308125	-12.958750
-178.425003	-88.206001	1119.959961	2.275000	-13.737500	-0.542500
-257.786011	-60.633999	1109.773071	-3.307500	-23.331875	5.451250
-309.514008	-82.289001	935.862000	9.423750	-7.437500	2.270625
-154.574005	-72.041000	1142.957031	29.649376	-10.381875	2.515625
-206.607010	-24.888000	1037.122070	28.013124	-11.777500	0.231875
-110.715004	1.708000	1050.176025	-0.503125	-14.087500	-4.746875
-13.115000	-22.997000	1012.051025	-9.209375	-17.377501	-9.419375
-46.604000	-33.733002	979.049988	-1.491875	-2.235625	-9.537500
-0.732000	-9.455000	1071.770020	1.260000	0.945000	-9.248750
-13.786000	-17.385000	1005.768005	-0.017500	-14.756875	-3.898125
-17.446001	-43.737000	1018.212036	8.601250	-6.720000	-1.470000
-87.901001	-32.818001	970.876038	-5.512500	-0.813750	-0.323750
-110.836998	-45.079002	903.776001	-21.100624	-3.250625	0.704375
-124.928001	-21.899000	961.848022	-20.256250	2.852500	0.875000
-134.505005	-19.886000	1049.749023	-5.827500	1.343125	0.245000
-124.988998	-28.975000	1079.943970	12.219375	-8.295000	1.470000
-65.758003	-41.053001	1092.265991	21.980000	-10.237500	1.155000
-158.722000	-10.126000	1064.389038	36.006248	6.216875	-1.771875
-338.367004	-3.477000	937.082031	20.886250	29.378124	-14.078750
-24.583000	3.965000	1122.765991	-15.535625	20.864374	-16.161249
-109.373001	-86.742004	912.377014	0.564375	5.136250	-9.765000
-304.695007	10.309000	887.244995	15.211875	45.526249	-7.555625
-82.899002	31.049000	1081.103027	-3.075625	23.450001	-3.115000
-110.105003	-5.185000	1149.789062	-19.079374	-22.889999	6.720000
33.855000	-31.903000	1160.342041	-41.750626	15.758750	-1.089375
197.335007	-219.722000	1004.182007	-58.454376	-2.581250	14.096250
-89.121002	-271.389008	757.742004	-38.937500	-6.295625	11.830000
44.896000	120.353004	1089.886963	-0.345625	-1.601250	-4.405625
31.232000	-90.462997	975.085022	18.733749	-4.401250	-12.341875
201.910004	-0.122000	948.733032	24.784374	-32.103748	-21.665001
351.299011	2.989000	977.342041	36.662498	-18.401251	-25.987499
265.899017	106.201004	1079.029053	18.129999	-30.240000	-10.193750
353.678009	-1.952000	952.454041	1.041250	1.500625	-6.724375
160.369003	47.396999	966.117981	-1.820000	5.337500	8.907500
105.834999	-7.137000	941.413025	-19.468750	4.585000	10.596250
144.020996	-37.453999	1026.568970	-22.684376	7.459375	8.890000
49.043999	-40.260002	961.604004	-15.373750	-10.294375	8.710625
116.570999	-60.268002	1064.389038	-2.961875	-5.543125	-0.345625
225.578003	-144.875000	912.742981	4.033750	-24.167500	1.973125
105.591003	-47.519001	1096.657959	1.369375	8.653750	-1.448125
285.175018	-44.225002	1040.477051	-3.246250	-6.969375	4.353125
72.773003	-74.664001	931.348022	-5.757500	-4.725000	15.890000
225.699997	-29.889999	978.928040	-11.112500	6.531875	18.773125
14.213000	-123.342003	800.625000	-4.357500	-17.723125	21.516251
18.849001	-61.610001	1009.489014	10.749375	23.073750	6.125000
91.134003	-34.038002	973.559998	-6.768125	-7.625625	15.233750
-18.544001	-169.641006	884.317017	11.134375	1.041250	-3.451875
87.230003	-31.964001	1180.716064	11.703125	20.536249	-14.896875
-50.386002	-121.329002	915.609985	-0.109375	-17.233126	-0.555625
-59.597000	-182.878006	945.866028	0.857500	-11.265625	0.975625
-73.566002	-88.571999	1011.075012	17.071251	-4.528125	6.781250
-270.901001	-78.750999	1008.574036	17.631250	-18.795000	14.358750
-169.763000	-37.453999	1134.599976	-0.538125	-0.682500	3.386250
-41.785000	-131.516006	1017.296997	1.509375	-12.617500	8.058750
-261.567993	-96.196999	952.575989	12.040000	-9.918125	5.617500
-49.288002	-93.025002	1096.841064	34.711250	21.765625	-7.000000
-104.981003	-52.399002	1067.744019	25.891251	14.800625	-0.853125
-134.688004	57.340000	1075.125000	0.153125	2.117500	-4.256875
25.437000	-2.196000	1000.278015	-17.040625	2.187500	-8.400000
52.338001	-38.430000	1011.989990	-6.339375	-1.614375	-6.234375
98.697998	-54.290001	1037.671021	9.988125	5.333125	-11.077500
21.106001	-43.066002	970.083008	8.408750	2.878750	-5.201875
-64.965004	-21.045000	985.272034	-1.977500	-1.968750	-0.691250
-0.671000	-41.236000	1000.643982	-5.250000	-2.148125	-4.851875
-48.068001	-56.119999	1047.614014	-3.106250	-5.481875	-5.009375
-180.621002	-13.420000	1058.349976	-2.187500	0.603750	-6.711250
-167.505997	-16.348000	1077.931030	-4.090625	5.026875	-8.001875
-206.363007	-53.497002	1056.337036	-3.045000	11.243750	-3.338125
-189.222000	-45.811001	984.234985	-7.389375	29.181250	-5.140625
-82.472000	-11.163000	1100.379028	-5.643750	16.082500	-1.570625
-154.268997	-19.093000	941.718018	-0.030625	25.331249	0.148750
-225.516998	30.927000	1064.693970	3.959375	24.688126	-0.476875
-179.218002	-65.514000	879.010010	-6.571250	-10.128125	-6.768125
-49.593002	-35.746002	1107.515991	5.267500	10.298750	-5.355000
-81.251999	-45.445000	967.338013	-6.243125	-6.405000	-6.186250
-14.701000	-132.796997	864.553040	-0.306250	-2.568125	-9.568125
97.294998	-84.790001	1028.399048	13.374375	1.360625	-2.240000
12.749001	-165.432007	755.241028	13.370000	-37.134998	-4.173750
230.580002	-82.654999	1157.170044	31.268126	-11.786250	-6.641250
89.181999	52.338001	1111.786011	23.384375	-48.860001	-1.102500
219.783005	-55.144001	1007.293030	28.831249	-20.803125	-6.523125
119.621002	25.437000	1134.051025	28.831249	-20.803125	-6.523125
119.621002	25.437000	1134.051025	34.903751	-6.103125	-6.820625
147.863998	82.349998	978.562012	13.238750	-12.748750	-6.177500
116.632004	69.295998	925.553040	-6.195000	5.836250	-8.798125
248.819000	32.879002	1007.536987	-25.969999	5.464375	-8.443750
243.512009	27.938000	1006.866028	-5.639375	4.690000	-0.853125
206.607010	75.029999	998.265015	7.564375	13.190625	1.946875
181.841003	70.272003	957.517029	-4.077500	18.825624	9.926875
156.221008	-23.424000	891.332031	-8.596875	23.970625	12.530000
65.758003	9.699000	962.885010	5.350625	19.363750	15.456875
-36.660999	64.843002	989.054016	12.687500	13.313125	7.293125
96.441002	49.897999	1086.471069	24.373125	20.098749	-5.495000
92.475998	133.406998	1032.058960	13.103125	10.622500	-3.272500
165.675995	34.892002	967.582031	10.443125	12.543125	-2.362500
59.535999	46.237999	941.046997	5.092500	13.466250	7.056875
278.648010	19.825001	1020.957031	-10.303125	7.175000	-2.493750
-59.841000	-40.504002	835.700012	-25.777500	1.618750	15.330000
-14.518001	51.972000	977.098022	-22.286249	-0.511875	5.551875
-102.785004	-61.366001	876.875000	0.371875	-19.788124	2.638125
-91.377998	36.904999	1094.950073	-7.774375	-6.851250	-3.933125
-74.054001	42.882999	1041.941040	-22.198750	-11.042500	-3.640000
-79.971001	-23.790001	776.164001	-19.398750	-32.624374	5.228125
-35.501999	23.058001	1192.550049	-17.224375	-1.071875	4.873750
-212.951004	-24.034000	751.947021	10.438750	-35.301876	1.277500
-136.884003	-76.311005	1028.826050	7.844375	-21.061251	-2.935625
-45.872002	-6.649000	1245.131958	15.155000	7.818125	-6.877500
-207.705002	-40.748001	931.226013	28.245001	-10.198125	-2.056250
-104.981003	34.770000	1238.300049	16.524376	-12.263125	-1.666875
-118.828003	16.592001	1138.442993	12.285000	-8.815625	-5.993750
-159.393005	-8.723001	950.257996	-0.761250	-18.764376	-7.643125
5.856000	25.925001	1184.498047	-19.985001	-6.295625	-5.976250
-17.507000	-16.042999	990.579041	-15.907500	6.291250	-3.451875
28.670000	-15.982000	994.726990	-8.618750	2.791250	-5.184375
90.524002	-40.687000	992.470032	-12.621875	-7.175000	3.994375
-96.380005	-14.030000	857.111023	-7.446250	-8.885625	11.204375
-47.580002	0.976000	996.496033	0.402500	14.056875	-0.643125
-15.250000	-10.797000	1010.281982	-0.105000	6.265000	-2.161250
-35.014000	-10.492001	988.139038	2.366875	5.337500	-3.657500
-14.457000	-12.932000	1023.518982	0.538125	10.329375	-2.865625
-55.083000	-42.334000	985.455017	2.883125	4.913125	2.677500
-160.247009	-10.614000	1009.001038	3.959375	6.899375	3.963750
-218.807007	-36.295002	1035.657959	5.079375	8.977500	5.061875
-300.119995	-95.586998	806.359009	13.558125	-11.388125	6.654375
-177.022003	-8.235000	1100.683960	14.052500	-4.243750	-0.520625
-244.671005	-11.712000	1062.192993	12.980625	3.018750	1.273125
-204.410995	21.410999	1011.989990	-16.200624	-12.149375	5.901875
35.319000	-63.867001	1018.151001	-9.406250	-8.229375	2.143750
-223.809006	22.264999	958.554016	2.835000	25.943750	-2.305625
115.290001	-13.603000	1128.744019	7.700000	13.483750	-13.409375
-60.817001	-16.226000	783.484009	35.765625	-6.090000	-4.891250
-55.449001	166.895996	1026.324951	13.501250	-27.785625	-4.033750
283.406006	-61.792999	682.346008	13.641250	-9.104375	-12.355000
152.561005	54.839001	938.729004	19.403126	26.464375	-4.186875
292.312012	97.722000	1092.388062	27.650000	-5.455625	-7.730625
378.993011	70.943001	1115.629028	36.106876	12.516875	-14.323750
185.257004	205.936005	1217.499023	38.556873	-0.437500	-14.831250
336.110016	125.172005	937.082031	21.682501	-12.057500	-15.303750
179.584000	166.347000	974.231018	14.910000	-4.725000	-3.206875
129.930008	184.281006	969.656006	-6.645625	-5.328750	-1.168125
260.897003	99.369003	955.015991	-11.554375	-3.828125	0.735000
188.429001	106.811005	1074.820068	-2.848125	5.801250	3.377500
137.494003	145.606995	1077.077026	-9.371250	4.576250	-0.078750
178.425003	105.591003	1003.510986	-14.105000	0.140000	0.888125
126.086998	101.382004	1069.390991	-21.021875	9.572500	1.373750
253.699005	76.799004	1078.296997	-19.595625	-4.357500	-1.859375
213.438995	91.500000	985.393982	-13.571250	-14.043750	6.304375
268.217010	125.477005	1055.971069	-29.404375	-8.986250	4.383750
421.265991	9.333000	858.330994	-39.816875	-19.158125	15.833125
44.896000	-20.252001	802.577026	-31.591875	5.831875	20.549376
235.399002	-10.797000	1070.489014	-30.331875	3.613750	7.910000
118.035004	-43.798000	1002.535034	-9.603125	-21.341249	14.555625
-23.302000	-80.398003	974.475037	-4.353125	-3.001250	12.862500
206.912003	1.891000	1231.041016	-0.743750	30.511250	-0.293125
-67.527000	-40.320999	940.803040	4.200000	-16.296875	19.035625
7.320000	-34.952999	1022.543030	16.222500	24.845625	-0.927500
7.320000	-86.253998	968.497009	16.638124	14.546875	-0.568750
-252.723007	-41.723999	867.481018	-6.440000	-21.695625	7.573125
-129.563995	-54.839001	1043.405029	2.992500	-3.723125	-9.415000
-306.647003	-20.923000	818.070984	-10.828125	-12.171250	-1.448125
-341.112000	7.442000	1017.114014	-18.099375	-12.206250	-2.384375
-95.648003	-88.571999	1050.053955	4.436250	6.098750	-8.671250
-147.315002	-44.896000	1026.324951	13.986875	11.952500	-9.769375
-51.056999	-42.517002	1099.098022	3.355625	10.206875	-6.807500
-10.065001	-27.816000	1006.134033	3.355625	7.910000	-6.230000
15.433001	5.734000	1020.408020	-0.455000	7.910000	-6.230000
15.433001	5.734000	1020.408020	-1.360625	7.091875	-3.845625
58.194000	-35.441002	995.215027	-2.161250	-12.096875	1.137500
24.034000	-10.065001	979.903992	0.809375	6.663125	0.708750
5.368000	-22.509001	1001.192993	3.255000	2.738750	1.246875
-20.679001	-23.546000	960.200989	5.901875	8.102500	-1.325625
2.623000	-12.932000	1049.078003	3.045000	9.209375	-1.531250
-11.346000	-39.223000	1009.611023	1.255625	0.166250	-0.341250
-33.855000	-35.075001	948.428040	1.601250	7.258125	-1.723750
-63.928001	-22.448000	942.023010	4.313750	6.304375	-2.410625
-155.061996	-28.853001	889.929016	7.358750	-0.975625	-0.695625
-210.755005	-35.806999	893.223022	12.333125	8.531250	-0.472500
-179.096008	5.307000	1167.296021	17.941875	20.680626	2.406250
-334.157990	-8.662000	934.398010	13.772500	18.746876	4.646250
-236.375000	34.526001	1089.703979	-0.341250	3.941875	-2.681875
-150.487000	-31.232000	998.204041	20.361250	22.089375	-6.343750
-341.234009	144.143005	957.395020	15.929375	14.131250	6.851250
-28.365000	25.925001	1073.905029	-7.831250	-36.036877	5.149375
-29.768000	12.993000	915.976013	-4.606875	-26.381250	5.936875
-112.423004	100.650002	812.825012	1.286250	-35.625626	4.396875
187.941010	16.653000	829.721985	-1.041250	-28.774376	6.234375
-27.816000	56.669003	807.457031	3.622500	19.744375	0.332500
592.187988	-25.498001	984.113037	-2.861250	-2.975000	10.692500
222.650009	-20.434999	1394.155029	48.790001	39.414375	1.207500
455.670013	23.302000	1304.240967	82.022499	-45.806252	-24.228750
178.973999	206.912003	1057.374023	66.390625	-40.525623	-30.095625
262.483002	206.302002	930.250000	18.528126	-8.903125	-26.433750
123.464005	196.237000	935.679016	-39.558750	-3.771250	-14.630000
223.931000	174.154999	1011.502014	-49.774376	7.266875	-10.408125
228.079010	123.220001	1119.105957	-31.863125	-6.230000	1.080625
147.132004	104.919998	1141.370972	-35.503124	-2.817500	5.696250
210.328003	32.879002	1034.926025	-28.004375	11.488750	5.298125
258.274017	27.632999	1122.765991	-1.168125	6.816250	5.858125
134.688004	51.667000	1020.468994	9.331875	15.216250	9.607500
271.571991	141.397995	1101.233032	2.681875	16.441250	3.653125
220.454010	27.877001	897.187988	-14.988750	-9.310000	28.371876
53.741001	14.823000	840.153015	-36.176876	24.998751	34.938751
-0.183000	15.494000	1009.549988	-7.708750	3.640000	28.144375
-34.526001	-36.660999	891.637024	-11.208750	-1.798125	8.474375
339.403992	2.257000	1065.120972	-18.895624	-4.256875	0.424375
57.706001	-37.514999	858.270020	-15.172500	-18.033751	10.263750
181.292007	-92.049004	991.432983	-30.388750	-7.595000	-8.885625
132.979996	-27.145000	1045.479004	-5.840625	-6.540625	11.086250
-74.724998	-75.029999	861.442017	-6.531875	-38.963749	-4.143125
133.041000	-9.943000	1153.875977	36.176876	32.230625	-16.375626
-182.328995	-19.459000	880.169006	18.353125	-12.998125	-3.368750
-142.800995	-51.362000	887.367004	-2.047500	-11.134375	-8.172500
-103.028999	5.124000	1086.044067	15.925000	4.309375	-5.026875
-213.865997	-48.250999	896.700012	23.686251	-9.117500	-1.001875
-85.460999	-26.779001	1085.983032	17.408125	7.857500	-10.005625
-102.968002	7.381000	1098.609985	5.661250	11.090625	-10.202500
-103.700005	7.564000	987.712036	-4.243750	0.949375	-7.966875
4.514000	-9.394000	1034.437988	-12.503750	5.801250	-8.973125
-18.726999	-12.078000	972.340027	-5.166875	7.888125	-7.717500
-70.272003	12.139000	965.325012	-6.960625	6.790000	-1.942500
9.638000	-6.222000	1001.559021	-15.780625	3.416875	0.498750
-4.026000	14.701000	1017.480042	-9.270625	4.099375	-2.030000
7.442000	-14.274000	1033.583984	-3.412500	11.650625	-2.550625
17.812000	-31.232000	1022.177002	1.758750	9.909375	-1.583750
-14.030000	-35.990002	998.875000	1.540000	7.953750	-2.240000
-11.285000	-50.386002	982.954041	-3.355625	4.834375	-2.515625
-6.283000	-46.542999	1020.225037	-3.648750	-1.001875	-3.381875
-68.320000	-12.017000	1042.551025	-1.036875	4.558750	-3.456250
-105.347000	-20.801001	1045.844971	-4.729375	4.593750	-1.155000
-145.119003	-29.219000	1086.714966	-4.585000	10.001250	-0.673750
-130.173996	-54.473000	1095.255005	9.625000	15.798125	-0.297500
-206.057999	-47.396999	1072.441040	16.244375	20.496876	3.535000
-309.941010	67.527000	1080.126953	9.108750	23.476250	9.655625
-307.744995	18.910000	983.929993	0.013125	4.707500	7.056875
-119.316002	-85.705002	1008.757019	-13.374375	7.962500	1.903125
-143.654999	-79.361000	1098.000000	7.721875	33.285000	-2.559375
-431.819000	2.013000	948.854980	3.526250	51.428123	-6.291250
-164.151001	-41.541000	1181.203979	-7.700000	36.150623	-13.505625
-282.735016	-67.649002	890.661011	16.314375	26.617500	-18.121250
-321.897003	0.793000	854.609985	21.135626	34.020000	-16.795626
-241.011002	58.194000	1003.999023	0.914375	-18.121250	-6.317500
-215.147003	-119.987000	738.953979	0.831250	3.705625	-12.079375
18.544001	-8.784000	1030.900024	17.635626	11.204375	-2.275000
-98.027000	-37.758999	821.242981	39.466873	-11.466875	-2.581250
122.792999	47.885002	1142.164062	29.841875	22.093750	1.929375
-27.999001	113.399002	1007.536987	33.753124	-3.136875	-7.542500
228.567001	88.999001	1009.916016	46.633125	-2.340625	-22.911875
62.525002	173.789001	1006.255981	42.358749	-6.006875	-22.575001
88.206001	109.068001	865.101990	28.336876	6.868750	-21.888124
13.176001	172.751999	927.078003	-0.030625	-12.880000	-7.332500
-9.577000	148.535004	958.309998	-7.511875	-1.623125	-4.935000
-33.977001	98.697998	859.184998	-7.511875	-1.623125	-4.935000
-33.977001	98.697998	997.106018	2.345000	-0.511875	5.018125
-53.070000	107.177002	997.106018	1.050000	-2.944375	7.616875
-43.249001	140.727005	973.255005	-6.256250	4.178125	6.794375
-36.417000	143.289001	979.111023	-9.511250	5.250000	9.419375
66.429001	112.362000	1012.234009	-6.129375	3.167500	9.611875
-17.141001	186.050003	937.997009	-11.165000	8.330000	13.361250
99.857002	136.029999	1063.473999	-33.429375	-3.605000	0.564375
17.568001	158.660995	1003.328003	-59.027500	0.192500	14.993125
-155.550003	71.308998	969.778015	-52.635624	17.635626	15.815625
-36.112000	-73.444000	782.507996	-26.486250	15.050000	28.013124
-50.630001	33.672001	974.841003	-3.443125	26.958750	29.111250
-236.192001	-68.869003	652.638977	-15.496250	-3.928750	24.189375
-301.218018	90.462997	855.463989	-15.745625	18.033751	15.623125
-219.173004	-57.767002	915.000000	-16.003750	-6.291250	6.243125
-326.227997	-64.476997	813.801025	6.969375	-38.976875	7.196875
-317.871002	29.036001	1621.502075	30.170000	-6.776875	-3.395000
-187.941010	-50.264000	983.442017	5.691875	-38.955002	-1.443750
-128.710007	30.439001	1169.004028	-1.421875	-35.748123	-3.920000
-334.768005	-11.041000	1115.019043	-2.940000	-5.346250	4.090625
-246.195999	-71.125999	1120.020996	-39.742500	-21.288750	-4.834375
-117.547005	-109.738998	1225.612061	-18.090626	-16.423750	-8.946875
-437.431000	15.372000	1005.402039	19.236876	-15.995000	-7.581875
-163.113998	-27.632999	1062.742065	2.480625	9.821875	-17.254999
-90.524002	-37.027000	1071.098999	0.651875	-4.541250	-10.727500
-257.602997	-60.329002	792.268005	-1.649375	-17.482500	-9.257500
-114.862999	-48.799999	819.108032	-26.893126	-17.793125	-5.066250
-176.778000	-34.526001	988.687988	-11.908750	-19.573750	-0.323750
-102.601997	-88.023003	1020.773987	-0.389375	-13.033125	-2.747500
-158.173004	-67.404999	1024.494995	-3.731875	-18.904375	-0.840000
-129.442001	-105.957001	1046.088989	5.000625	-19.245625	-2.244375
-76.677002	-90.646004	1087.325073	7.039375	-1.754375	-8.487500
-81.008003	-57.584000	1052.615967	-0.148750	-0.966875	-3.635625
-148.229996	-64.965004	1007.842041	-8.260000	-3.705625	-0.468125
-200.263000	-29.585001	1045.113037	-2.170000	5.683125	-2.581250
-193.919006	-85.583000	1037.305054	4.628750	4.427500	3.045000
-267.118988	-47.885002	1128.988037	3.290000	8.443750	8.321250
-271.694000	-65.270004	1045.723022	4.103750	14.415625	6.120625
-249.917007	-61.061001	1012.356018	1.032500	23.979376	4.983125
-219.112000	-82.532997	1040.294067	9.384375	48.566875	2.782500
-334.829010	-38.917999	878.705017	3.666250	61.547501	6.636875
-255.223999	-85.155998	1068.171021	-5.464375	36.421875	3.906875
-274.377991	-98.942001	955.382019	-1.579375	25.598125	1.570625
-309.026001	-15.433001	1011.319031	3.224375	8.299375	1.369375
-186.050003	-101.931000	1000.583008	38.478127	-4.453750	-3.500000
-245.403000	12.017000	947.513000	36.999374	-1.203125	-10.500000
-1.830000	17.141001	1081.895996	36.553123	-31.438749	-12.954375
-176.167999	48.068001	1110.200073	25.475624	-46.361874	-12.516875
-80.764000	-49.897999	810.263000	22.916250	29.614374	-18.235001
-50.630001	-21.472000	838.018005	31.329374	14.612500	-7.227500
-177.753998	167.201004	1000.705017	32.418751	2.940000	-4.961250
-2.623000	101.503998	1015.406006	23.471874	-5.350625	3.290000
-54.046001	74.359001	942.267029	2.651250	12.604375	-1.124375
59.963001	183.122009	1012.416992	-8.312500	-0.262500	-10.298750
146.705002	61.610001	829.661011	5.766250	-25.248125	-12.923750
99.064003	124.195999	916.525024	10.259375	6.890625	-17.880625
35.380001	177.449005	884.134033	10.845625	11.103750	-16.638124
24.217001	213.682999	1018.212036	-0.345625	1.688750	-3.723125
-66.246002	139.507004	931.775024	-21.341249	-7.595000	6.776875
-54.656002	79.910004	941.656982	-33.328751	-2.358125	12.188750
-76.189003	26.169001	943.182007	-20.759375	-6.737500	11.703125
-41.053001	37.453999	1037.488037	0.271250	5.420625	5.950000
28.609001	35.746002	1042.307007	12.858125	3.189375	2.301250
19.703001	34.770000	953.125000	10.101875	13.326250	1.631875
100.467003	115.473000	1009.976990	12.114375	10.845625	-5.372500
-112.056999	204.106003	951.539001	0.188125	23.673124	-3.990000
47.153000	53.497002	986.309021	-20.370001	27.908125	-3.596250
-139.568008	6.710000	825.025024	-35.966873	13.160000	8.999375
-88.023003	3.416000	881.328003	-21.376249	19.210625	4.786250
-192.333008	-85.217003	865.468018	17.219999	-3.963750	22.255625
-166.042007	108.763000	944.890015	26.792500	-10.753750	13.746250
-163.541000	41.968002	961.970032	31.373125	-21.105000	13.151250
-300.851990	81.191002	962.335999	-17.486876	-28.770000	16.419374
-267.545990	68.137001	949.465027	-21.013124	-28.910000	18.059999
-317.566010	19.520000	1173.213013	-24.622499	-40.525623	21.735001
-359.717010	74.237000	1162.598999	-41.195000	-15.251250	11.226250
-341.904999	14.701000	1127.890015	-33.298126	-10.080000	2.358125
-353.617004	-74.359001	933.361023	-10.526250	-29.141874	-6.750625
-261.812012	-23.729000	1056.764038	8.820000	-6.251875	-20.138124
-330.192993	58.621002	1044.503052	24.443125	1.194375	-13.199375
-257.602997	48.129002	1103.612061	14.901250	-9.629375	-8.185625
-178.486008	2.318000	1055.421997	9.515625	-2.139375	-4.099375
-211.059998	5.429000	961.604004	-1.483125	2.800000	-0.087500
-162.503998	8.967000	971.851990	-13.256250	3.342500	-1.006250
-97.783005	-21.594000	979.598999	-11.226250	-1.780625	-1.299375
-113.338005	-10.980000	1006.255981	-2.082500	-0.840000	-3.618125
-118.706001	-3.843000	990.518005	6.492500	3.167500	-3.377500
-129.746994	10.492001	1002.596008	9.065000	5.083750	-3.141250
-165.859009	1.647000	955.747986	2.082500	-4.882500	-0.218750
-194.956009	0.732000	989.481018	2.082500	-10.206875	-0.048125
-255.102005	-1.708000	941.351990	-3.946250	-10.206875	-0.048125
-255.102005	-1.708000	941.351990	-3.040625	-13.256250	0.030625
-262.848999	-21.228001	941.962036	-9.638125	-26.118750	4.020625
-267.424011	9.882000	963.494995	-13.755000	-34.816250	9.730000
-258.091003	19.215000	971.424988	-17.425625	-35.599377	18.151875
-184.464005	2.440000	1072.807007	-13.055000	-5.687500	5.512500
-119.376999	-68.014999	1046.942993	4.007500	14.866250	0.070000
-115.473000	-33.611000	1192.123047	-3.171875	6.063750	-7.332500
-98.209999	-84.180000	994.483032	15.741250	7.441875	-12.425000
-231.007004	49.471001	1007.109985	21.726250	2.191875	-8.483125
-50.935001	26.291000	1025.958984	-8.334375	-22.128750	-6.330625
-38.796001	-120.841003	690.703003	-3.036250	15.841875	-8.281875
9.272000	57.645000	1174.799072	14.476875	4.226250	-13.356875
178.119995	-67.222000	891.088013	19.770624	-37.869999	-31.718750
253.272003	-28.853001	933.544006	54.127499	-12.162500	-29.723749
238.998001	70.820999	1141.005005	59.504375	-29.120001	-26.298124
398.878998	-12.749001	1013.454041	51.156876	-29.150625	-21.813749
276.330017	142.130005	1047.431030	31.863125	-18.904375	-16.152500
322.324005	118.645004	967.947998	-1.001875	-12.635000	-11.143125
262.056000	146.766006	965.020020	-22.036875	-1.732500	-1.461250
182.878006	176.167999	1003.267029	-43.990623	5.376875	6.623750
143.044998	86.193001	942.083984	-45.832500	6.173125	12.407500
145.240997	30.195000	1069.513062	-26.289375	6.422500	15.710625
128.100006	19.703001	1017.296997	-5.525625	7.004375	11.598125
197.212997	55.570999	1155.828003	25.480000	4.834375	7.713125
245.098007	-45.445000	971.119995	32.528126	-7.800625	13.601875
125.965004	138.958008	1129.415039	0.691250	12.665625	3.766875
354.898010	-8.723001	959.652039	-27.391874	7.538125	2.471875
256.139008	70.638000	785.070007	-16.003750	5.105625	16.038750
-70.272003	95.891998	833.260010	6.151250	27.790001	12.341875
118.523003	27.267000	934.703003	18.567499	6.168750	14.656250
-51.850002	144.753006	1090.313965	24.806250	8.824375	14.013125
33.855000	145.423996	1019.492981	13.431250	8.102500	7.091875
-60.389999	101.138000	935.557007	-19.228125	-50.994999	20.260626
-187.757996	97.356003	923.113037	-31.303125	-1.404375	6.838125
-170.921997	51.484001	840.945984	-23.598749	-22.426250	3.933125
-51.850002	-77.775002	1001.803040	-14.555625	-13.457500	-4.725000
-90.829002	17.995001	1069.879028	-18.392500	11.090625	-11.493125
-170.311996	-69.112999	915.609985	-19.831875	-13.636875	-2.856875
-94.916000	-46.055000	1174.128052	-8.246875	-19.328751	-7.052500
-151.951004	-18.056000	1038.159058	0.126875	-8.540000	-8.211875
-33.367001	14.274000	1181.509033	9.288125	-20.754999	-11.016250
85.278000	-17.446001	1187.487061	20.798750	4.353125	-8.890000
-16.409000	-42.395000	974.841003	-0.673750	13.908125	-5.521250
141.154007	-59.292000	1033.583984	-21.634375	7.468125	-3.780000
-18.177999	-44.285999	920.734009	-35.319374	-5.136250	4.755625
11.224000	-65.819000	968.070007	-21.459375	-1.579375	0.984375
49.227001	-22.326000	1082.811035	-6.107500	4.790625	2.073750
-38.491001	-54.900002	907.375000	1.098125	-1.076250	4.773125
-46.055000	-55.021999	942.389038	19.525625	10.333750	0.420000
-71.796997	-14.457000	971.486023	12.936875	7.831250	-0.590625
-87.840004	-46.848000	953.186035	16.668751	-0.901250	1.798125
-222.710999	-19.032000	1009.367004	18.615625	9.576875	0.581875
-199.531006	-19.153999	960.018005	11.711875	7.651875	2.358125
-173.240005	-49.653999	1011.929016	11.602500	-10.027500	9.126250
-10.675000	-37.332001	1130.329956	24.368750	10.832500	-3.171875
-200.690002	82.716003	959.530029	25.493126	11.729375	-5.845000
-112.239998	77.287003	977.098022	20.457500	-27.619375	-0.673750
-164.516998	44.652000	1003.205994	9.261875	-16.292500	2.918125
-23.058001	142.679001	1077.504028	-20.763750	-22.093750	-1.859375
205.570007	21.410999	1024.250977	-7.936250	-44.620625	-0.293125
85.339005	52.216000	893.710999	13.912500	40.333126	-6.125000
106.445000	162.382004	1032.485962	10.167500	-1.391250	4.230625
325.923004	-16.653000	842.653992	-0.953750	-10.644375	-6.457500
256.016998	-42.882999	804.041016	29.369375	-14.599375	6.313125
263.946991	77.835999	952.270996	39.326874	0.043750	-9.944375
392.657013	133.772995	1100.256958	41.881874	-21.035000	-15.404375
402.416992	48.861000	1039.317993	27.938749	-38.027500	-8.338750
379.602997	162.565002	1118.251953	10.714375	-4.060000	-15.229375
358.009003	162.869995	1009.549988	4.335625	-18.725000	-1.316875
249.856003	113.947998	1013.270996	-14.962500	-10.031875	3.040625
302.011017	118.523003	944.218994	-30.196251	10.430000	3.605000
269.131989	75.701004	1002.473999	-17.049376	16.126249	6.733125
333.975006	36.295002	1056.458984	-1.386875	22.728125	-1.203125
227.285995	102.785004	1003.023010	-5.547500	11.431875	-1.448125
199.408997	102.113998	1116.971069	-16.030001	-18.777500	-19.801250
572.179993	9.760000	943.426025	-11.633125	-12.569375	-14.682500
-3.904000	242.658005	1002.230042	-17.150000	26.416250	-11.650625
245.220001	104.554001	895.479980	-32.724998	27.090000	-8.719375
80.093002	86.253998	966.911011	-22.421875	1.526875	9.170000
48.434002	5.002000	999.546021	-22.190001	51.205002	-0.997500
120.353004	-3.111000	944.707031	-0.931875	35.205624	3.495625
-44.225002	-27.267000	881.205994	21.853125	9.213750	8.535625
-148.412994	4.392000	950.197021	28.774376	43.924999	0.087500
-83.631004	22.264999	953.369019	23.047501	11.694375	4.331250
-239.608002	62.403000	905.239990	12.670000	-1.225000	3.189375
19.398001	12.078000	1026.874023	-15.421875	-31.705626	-6.580000
-92.232002	14.945000	994.666016	-26.298124	-3.325000	-13.759375
-7.015000	8.357000	1044.380981	-32.029373	-22.093750	-10.504375
-36.234001	3.294000	1145.519043	-17.701250	0.896875	-9.253125
-191.417999	12.261000	908.656006	-5.005000	20.501249	-11.248125
-109.128998	7.686000	909.632019	-13.873125	-30.082500	0.109375
-51.728001	-40.992001	1001.864014	-9.620625	-25.007500	-0.052500
-54.778000	-54.229000	897.859009	-3.771250	-13.842500	-0.411250
-69.784004	2.257000	1097.755981	0.035000	-14.647500	1.181250
7.320000	-11.590000	1104.770996	4.602500	4.274375	-4.624375
-12.566000	-36.173000	1049.749023	4.602500	5.306875	-2.966250
36.478001	-28.243000	1057.435059	8.741250	5.306875	-2.966250
36.478001	-28.243000	1057.435059	7.070000	7.958125	-4.593750
56.669003	-18.483000	1021.750000	3.771250	10.727500	-2.388750
0.427000	-39.650002	952.393005	-1.960000	0.651875	0.673750
-3.660000	-34.221001	991.311035	-1.312500	8.015000	-0.822500
-116.265999	-33.428001	1039.562012	0.555625	1.522500	3.237500
-189.649002	-17.202000	1112.274048	-3.062500	15.443750	3.325000
-252.296005	10.492001	1134.661011	6.195000	37.095627	5.219375
-360.876007	-4.758000	1073.112061	20.103125	41.352501	5.998125
-370.941010	-4.148000	990.457031	12.805625	35.586250	6.181875
-286.028992	38.307999	1078.479980	11.392500	13.335000	4.808125
-380.395996	65.026001	939.765991	15.763125	-4.370625	2.550625
-214.232010	68.137001	995.458984	1.382500	18.991875	2.244375
-2.684000	4.758000	1107.454956	5.617500	-16.095625	6.658750
-26.169001	-10.248000	885.231995	25.908751	18.497499	-1.929375
-22.997000	143.960007	1119.959961	30.975000	35.183750	4.873750
-1.769000	24.461000	877.119019	19.171249	11.786250	13.886250
-89.853004	72.223999	1129.902954	-2.598750	26.061874	15.404375
-38.368999	29.219000	882.669983	-28.910000	7.437500	4.151875
88.876999	-35.868000	899.140015	-13.912500	22.828751	-5.604375
152.988007	41.480000	1120.630981	14.061250	11.296250	-12.490625
156.831009	-33.611000	894.077026	34.002499	-2.196250	-24.254999
126.514000	59.658001	1013.210022	29.701876	-17.696875	-25.803749
86.925003	138.835999	896.273010	21.695625	-5.258750	-25.983126
59.597000	184.341995	885.903015	16.065001	-2.975000	-14.393750
7.381000	149.938004	871.690002	5.945625	-3.316250	-9.642500
33.428001	220.393005	1021.079041	-0.118125	1.933750	-0.205625
3.782000	114.375000	974.291992	0.721875	-2.878750	11.278750
27.267000	71.308998	948.489014	-8.378125	-2.791250	12.726875
75.396004	123.525002	998.265015	9.270625	-0.914375	15.981875
-49.166000	134.688004	989.725037	23.948750	1.719375	20.641251
69.600998	130.906006	1020.041992	9.065000	6.606250	9.100000
60.451000	148.718002	974.291992	-0.975625	5.438125	10.998750
-83.936005	138.287003	981.429016	-11.720625	-3.386250	-4.213125
258.274017	104.188004	942.145020	-2.773750	7.087500	-13.168750
-166.225006	164.089996	841.251038	-4.318125	-9.051875	-1.185625
92.232002	129.563995	1011.014038	-9.725625	12.923750	-17.167500
-193.553009	98.332001	806.176025	-30.546249	-5.298125	-3.972500
-136.152008	95.891998	994.544006	-37.690624	-6.737500	0.004375
-139.445999	-32.452000	986.065002	-37.992500	-5.070625	2.585625
-203.130005	71.248001	978.257019	-30.524376	-30.585625	8.203125
-325.984009	68.564003	1043.161011	6.531875	-0.621250	-1.089375
-183.915009	68.197998	1072.868042	1.487500	-10.788750	-2.581250
-263.764008	40.077000	1067.195068	-16.703751	-35.730625	0.962500
-99.369003	-50.325001	1021.018005	-32.121250	-27.790001	-14.463750
-200.994995	-26.657000	1087.812988	-32.370625	-27.820625	-13.663125
-165.126999	-44.652000	1078.906982	-30.852501	-10.171875	-20.781250
-158.783005	-77.592003	1031.021973	-12.508125	-24.268126	-15.820000
-229.542999	-128.343994	959.103027	-18.930626	-5.652500	-14.498750
-123.708000	-107.177002	1113.250000	-14.945000	8.999375	-12.993750
-221.979004	-76.615997	1072.197021	3.250625	8.785000	-3.005625
-183.915009	-71.918999	912.132996	9.835000	14.791875	-6.041875
-68.014999	-67.404999	1030.350952	9.751875	-1.242500	-1.268750
-25.986000	-98.209999	1052.921021	14.503125	1.391250	1.588125
-52.643002	-90.462997	977.098022	5.652500	6.313125	0.367500
-102.723999	-70.943001	928.786011	-4.291875	2.445625	0.643125
-119.194000	-58.072002	960.384033	-7.490000	-1.041250	1.251250
-119.681999	-52.887001	1001.497986	-6.475000	0.048125	-0.039375
-120.779999	-80.093002	981.002014	3.880625	-1.977500	-0.275625
-152.500000	-61.915001	1031.692993	5.621875	-14.074375	2.957500
-147.070999	-110.776001	993.385010	10.132500	-13.063750	0.813750
-261.751007	-39.589001	978.684021	7.826875	17.434376	0.975625
-269.558990	-57.096001	1009.062012	5.442500	15.509375	6.566875
-203.557007	-95.953003	980.087036	0.100625	0.568750	3.854375
-155.428009	-73.626999	1045.479004	7.126875	32.703125	5.744375
-255.163010	-29.889999	948.916016	8.526875	10.539375	13.934375
-24.644001	-64.050003	1072.014038	11.633125	-19.801250	1.019375
-31.659000	-59.719002	1010.160034	30.441250	11.178125	-1.627500
-140.787994	19.398001	1040.781982	2.060625	-10.889375	3.014375
107.970001	-72.711998	1015.345032	0.358750	-27.606251	-1.636250
-59.597000	5.856000	1062.131958	13.960625	7.853125	-0.415625
-20.191000	54.778000	996.252014	2.782500	-28.411249	2.257500
31.537001	-82.167000	958.371033	20.426874	5.092500	7.673750
-197.212997	72.590004	1170.712036	16.708124	50.054375	9.730000
-19.703001	40.504002	967.704041	2.918125	-7.831250	16.113125
-64.416000	57.950001	1112.822998	21.861876	16.034374	8.085000
176.716995	-40.687000	1023.518982	19.271875	-27.986876	-11.545625
215.513000	48.312000	959.895996	20.553749	-35.091873	-10.390625
190.014999	96.014000	954.588989	6.982500	-12.118750	-18.690001
107.604004	123.464005	921.466003	7.411250	-9.415000	-17.163124
60.024002	100.345001	902.067993	-0.918750	0.809375	-11.948125
90.158005	68.076004	1009.184021	-2.988125	4.396875	-9.611875
-1.220000	36.844002	928.054016	-8.719375	-1.032500	-7.297500
-10.187000	22.448000	967.277039	-9.839375	-1.785000	-7.796250
-30.500000	-9.882000	948.184021	10.451875	-0.472500	-8.645000
-109.922005	100.528000	1045.113037	4.808125	2.393125	-1.872500
3.233000	27.023001	990.945007	-6.798750	0.336875	-3.224375
-31.354000	20.923000	980.087036	-3.307500	1.868125	-0.910000
-153.354004	79.910004	1017.785034	11.029375	5.508125	1.334375
-11.956000	72.528999	1000.156006	3.145625	5.722500	-0.494375
-167.139999	125.233002	1028.582031	-1.973125	-1.526875	-3.189375
37.637001	115.473000	1051.701050	-4.178125	1.461250	-7.402500
27.877001	51.240002	901.397034	0.791875	-11.361875	-3.368750
52.521000	84.362999	1124.169067	-1.111250	-7.927500	-1.881250
71.065002	38.430000	988.992981	-4.764375	-16.511250	1.176875
67.832001	60.329002	923.783997	-4.764375	-16.511250	1.176875
67.832001	60.329002	1089.703979	11.624375	-7.551250	-0.450625
217.891998	66.306999	1089.703979	26.936874	1.951250	-3.486875
292.678009	118.645004	1101.294067	3.220000	1.631875	-0.315000
224.785004	57.218002	1022.359985	-3.928750	15.194375	1.960000
262.483002	183.854004	1114.225952	6.225625	26.556250	2.310000
181.535995	113.521004	883.158020	7.975625	24.228750	12.118750
153.537003	98.576004	943.059998	-9.598750	26.963125	1.890000
223.809006	66.124001	885.536987	-18.440624	3.788750	9.620625
-17.141001	1.708000	894.077026	-19.941250	-1.268750	12.315625
103.456001	82.532997	1035.657959	-18.453751	10.753750	0.568750
-75.701004	-10.126000	1009.489014	-6.461875	-28.853125	6.864375
77.958000	105.224998	1243.302002	-19.394375	-25.291876	-1.281875
-140.300003	3.843000	831.613037	-14.796250	-37.283749	3.609375
-35.868000	54.961002	1055.360962	7.840000	-17.596251	11.869375
-233.447006	30.683001	1046.211060	22.443750	12.092500	10.451875
-215.268997	-61.976002	703.330017	15.767500	7.826875	-3.377500
-302.743011	144.630997	1113.067017	5.328750	19.521250	-4.764375
-179.706009	38.186001	969.046021	-10.303125	24.001249	-7.686875
-73.078003	-20.801001	918.660034	-6.265000	1.916250	-3.298750
-87.230003	-87.840004	1036.084961	3.583125	-4.895625	-0.367500
-204.167007	65.026001	1072.074951	-9.961875	5.840625	-0.336875
-37.576000	-36.660999	932.202026	-12.127500	0.538125	-0.323750
-153.903000	10.248000	1054.446045	-2.498125	2.594375	2.025625
-157.624008	20.862000	982.405029	-13.803125	-1.649375	-1.036875
-29.097000	-28.914000	981.367981	-19.521250	-31.395000	0.586250
-55.327000	8.357000	1106.784058	-6.470625	-16.988125	-2.703750
-46.299000	-27.084000	916.952026	-16.170000	-18.830000	0.026250
-24.827000	-68.259003	1045.234985	-16.970625	-26.818750	2.318750
-38.307999	-30.805000	1079.760986	-17.045000	-3.180625	-1.176875
-119.559998	-63.440002	932.629028	-18.003124	-13.094375	0.748125
-78.507004	-69.723000	1036.634033	-1.885625	-14.175000	-2.655625
-157.990005	-27.328001	912.194031	3.290000	13.895000	-3.670625
-89.243004	-53.253002	938.302002	-7.126875	6.160000	-0.993125
-19.459000	-75.457001	1017.723999	8.316875	-5.372500	-4.493125
-102.663002	-59.170002	1008.513000	11.208750	-1.146250	-4.948125
-110.715004	-46.726002	1036.878052	-1.815625	3.946250	-1.706250
-101.687004	-85.339005	1001.619995	-7.577500	0.218750	3.355625
-180.438004	-65.574997	1005.218994	-8.351875	-6.313125	6.667500
-52.399002	-93.513000	1022.970032	-8.417500	-21.258125	0.686875
71.492004	-89.974998	1119.899048	1.596875	-7.231875	-3.797500
-198.555008	-34.221001	1092.815063	20.768126	21.135626	-4.501875
-28.792000	-76.677002	1065.853027	10.539375	39.961250	-8.824375
-125.903999	-43.005001	979.355042	28.673750	23.764999	1.960000
-288.102997	-56.730000	871.934021	10.123750	17.578751	1.763125
-69.052002	-22.997000	1157.718994	-14.603750	0.870625	-16.388750
-36.234001	-77.165001	910.242004	-0.280000	-22.089375	-16.336250
60.084999	-41.174999	1171.932007	-9.292500	-14.188125	-15.898750
19.825001	-71.003998	982.221985	7.914375	0.914375	-3.438750
-113.033005	-29.524000	968.070007	13.313125	20.037500	-1.885625
65.331001	-47.824001	969.290039	20.667500	2.327500	-1.115625
-174.399002	63.135002	930.677002	23.043125	-23.830626	4.720625
-12.139000	-15.860001	940.437012	21.350000	20.553749	-3.294375
93.208000	-12.749001	885.781006	11.383750	14.433125	8.286250
-75.152000	75.029999	963.434021	18.803749	28.035000	8.500625
43.126999	14.518001	1020.895996	28.695625	17.819374	8.736875
-32.818001	90.524002	1010.830994	23.533125	-23.629375	9.345000
60.756001	114.252998	924.333008	31.705626	-7.376250	-2.051875
82.777000	64.660004	956.358032	22.478750	-11.173750	-4.143125
67.587997	166.591003	1060.911987	8.351875	-7.371875	-8.054375
200.994995	33.367001	991.067017	-2.620625	-4.383750	-10.819375
177.936996	73.504997	995.337036	-2.148125	-4.431875	-13.925625
192.028000	167.139999	1014.979004	6.759375	5.923750	-9.690625
188.490005	135.419998	1037.671021	3.425625	4.274375	-1.365000
116.448997	107.665001	927.809998	-8.421875	7.161875	0.940625
78.873001	132.186996	992.592041	-6.947500	10.430000	8.540000
44.408001	80.886002	962.945984	-6.286875	5.823125	10.985625
62.769001	77.225998	1039.440063	-7.358750	9.415000	1.575000
87.535004	135.785995	1062.681030	9.590000	8.054375	1.758750
28.487000	113.887001	1017.480042	0.385000	22.693125	-7.966875
155.001007	29.585001	889.502014	-16.454374	-2.808750	-8.093750
68.502998	3.965000	789.523010	-9.935625	-8.426250	1.330000
31.903000	167.078995	1052.250000	-7.398125	5.311250	-4.125625
96.563004	17.507000	891.637024	4.593750	19.004999	-1.382500
-93.330002	148.779007	1018.395020	0.739375	6.685000	7.070000
1.220000	107.787003	1065.426025	-12.250000	8.754375	-2.161250
-128.039001	6.283000	1022.908997	-40.521252	4.418750	5.783750
-111.020004	99.552002	1089.886963	-28.262501	23.909374	-3.613750
-273.584991	-77.530998	837.895996	10.381875	-0.450625	-1.456875
-246.440002	101.320999	1072.745972	1.561875	20.033125	-6.348125
-95.038002	-72.590004	758.596008	26.004999	-15.417500	-3.408125
-170.128998	-108.885002	920.184998	12.123125	1.929375	0.284375
-185.806000	95.586998	1173.701050	-3.395000	25.624374	-5.893125
-308.050018	94.306000	1027.301025	2.765000	-15.548750	2.441250
-165.492996	103.395004	1043.099976	21.485624	3.145625	-7.704375
-157.807007	97.173004	1041.026001	7.730625	9.633750	-8.911875
-117.181000	81.739998	1024.556030	-28.770000	-20.947500	-11.676875
-88.084000	44.957001	1029.984985	-21.201250	-2.716875	-15.583750
-185.684006	1.525000	833.320984	-18.064375	12.783750	-8.736875
-163.419006	4.331000	975.023987	-2.743125	-22.815624	1.461250
-222.710999	-45.383999	866.687988	16.209375	-12.556250	-0.280000
-149.572006	-9.821000	1049.078003	16.091249	-16.848125	3.701250
-252.357010	85.034004	1160.098022	16.091249	-16.848125	-0.993125
-252.357010	85.034004	957.700012	26.013750	-12.075000	-0.993125
-238.143997	20.496000	957.700012	14.914375	-5.057500	-3.845625
-229.542999	20.984001	964.104980	-3.421250	-12.254375	3.574375
-222.345001	53.558002	1009.428040	-20.479376	-3.088750	-0.673750
-201.238998	30.195000	1055.544067	-22.260000	-4.663750	-1.067500
-177.449005	14.762000	1145.458008	-4.571875	0.026250	-0.564375
-253.028000	15.860001	1123.558960	-0.420000	7.367500	3.333750
-289.688995	1.708000	1084.031006	-8.706250	-1.540000	10.412500
-332.023010	-3.172000	1053.348022	-26.004999	-11.913125	9.065000
-350.627991	-34.770000	1002.230042	-47.486252	-10.263750	8.185625
-224.296997	-46.421001	1007.049011	-19.600000	-22.041250	12.985000
-261.873016	-62.341999	897.919983	4.834375	2.371250	7.490000
-158.600006	9.089000	1049.932007	-5.363750	-9.069375	10.863125
-56.424999	-108.640999	1008.513000	-16.196251	-32.873749	13.247500
-19.459000	-27.511000	1192.916016	-12.250000	1.312500	7.813750
-4.148000	-10.736000	1157.536011	-20.768126	-9.047500	10.167500
-64.171997	-150.548004	880.718018	-4.515000	-26.915001	13.951875
46.909000	-107.116005	963.617004	39.313751	17.639999	-0.564375
-80.641998	25.559000	991.250000	43.964375	42.673752	-0.730625
56.486000	-161.893997	882.669983	41.098751	20.628124	-0.415625
-54.167999	20.252001	1081.164062	31.254999	47.508125	-2.231250
101.870003	-21.289000	896.333984	28.223125	-28.192499	-7.980000
91.927002	-54.167999	877.546021	37.213749	-0.901250	-6.155625
113.764999	35.136002	799.221985	34.544998	5.385625	-10.880625
240.523010	75.945000	847.411987	8.715000	-11.414375	-10.565625
138.531006	92.598000	1003.450012	2.821875	6.313125	-9.769375
167.139999	44.774002	843.447021	7.490000	6.794375	-4.843125
49.471001	193.919006	885.841980	-0.538125	-2.611875	9.143750
65.391998	59.353001	957.517029	-11.471250	-3.998750	8.583750
129.686005	36.417000	986.004028	1.098125	-3.368750	4.523750
51.728001	73.993004	973.194031	3.491250	-3.714375	4.545625
27.145000	78.507004	1002.962036	0.030625	2.135000	2.148125
151.158005	32.208000	980.941040	3.696875	3.088750	-1.456875
131.393997	105.408005	1082.811035	1.732500	-10.018750	3.171875
4.270000	115.900002	994.483032	-14.756875	-1.531250	0.840000
307.013000	68.564003	1007.231995	-20.728750	-9.922500	7.787500
-57.889000	65.636002	932.567993	-13.864375	-17.325001	18.375000
266.082001	-19.580999	1074.270996	-12.880000	15.911875	-0.516250
106.017998	47.153000	832.345032	5.381250	-3.797500	10.675000
-135.359009	8.967000	856.744995	-0.227500	10.119375	1.610000
132.309006	63.013000	1040.904053	1.168125	10.285625	3.963750
-149.938004	-4.331000	762.988037	13.636875	1.093750	12.346250
-87.840004	78.140999	1035.230957	14.354375	4.856250	4.029375
-99.857002	171.654007	1131.244995	17.972500	-23.309999	13.606250
-136.518005	-17.446001	836.432007	2.003750	-29.811251	-8.553125
6.283000	164.699997	1174.250000	-1.710625	-1.391250	-15.540000
-136.884003	-8.296000	906.338013	-15.925000	-21.993126	-8.400000
-98.149002	60.817001	1070.977051	-46.567501	5.578125	-13.571250
-61.671001	-94.183998	1030.717041	-59.224377	-28.625626	-6.221250
-125.050003	-115.167999	1052.432983	-72.747498	-5.223750	-14.043750
-144.570007	4.636000	1240.801025	-19.591249	22.141874	-8.150625
-241.804001	-38.612999	1043.405029	12.700625	12.350625	-7.551250
-41.114002	-56.852001	978.317993	51.664375	15.443750	-14.061250
-46.116001	-27.694000	1049.870972	48.698124	13.833750	-7.595000
-109.433998	15.738000	891.697998	18.059999	-5.810000	-3.906875
-16.469999	-25.071001	1051.578979	18.790625	-7.056875	-3.845625
-81.984001	0.183000	982.039001	-1.413125	-7.161875	-0.017500
-121.084999	23.241001	975.450989	-19.906250	-26.985001	3.290000
-87.778999	-76.067001	1014.002991	-14.875000	-10.845625	-1.767500
-64.721001	-23.973000	1156.864990	-16.756250	11.243750	-0.905625
-125.660004	-37.820000	951.966003	-13.129375	-14.713125	0.358750
-57.157001	-48.739002	1051.822998	-1.920625	-4.637500	-4.690000
-56.973999	-14.945000	989.176025	6.798750	12.490625	-5.464375
-0.305000	-28.182001	1037.000000	14.726250	4.663750	-0.494375
31.354000	-45.993999	1058.289062	20.475000	1.509375	1.820000
-83.875000	-46.604000	887.428040	18.129999	8.369375	-0.315000
-159.087997	25.071001	952.515015	5.936875	4.554375	2.288125
-182.695007	-32.635002	963.190002	-1.015000	-15.793750	8.391250
-277.183990	17.995001	971.303040	-0.765625	-11.116875	8.706250
-222.345001	57.645000	1079.212036	-5.285000	-14.297500	8.653750
-68.807999	-26.291000	1132.708984	12.359375	-17.858749	1.763125
-219.050995	46.237999	1068.842041	30.703751	9.655625	-5.416250
-78.933998	27.816000	970.510010	14.039375	12.158125	-9.257500
-98.087997	37.820000	1019.432007	10.167500	8.443750	-0.459375
-314.638000	56.669003	898.957031	-1.509375	10.924375	2.384375
63.744999	13.359000	1024.312012	10.858750	9.283750	-0.993125
-220.576004	68.990997	904.812988	44.883125	-1.754375	2.603125
-97.722000	110.653999	978.806030	15.133125	28.179375	-15.400000
132.492004	186.416000	1055.421997	-8.798125	-20.851250	-5.481875
48.494999	-23.485001	943.182007	-7.170625	-21.293125	-8.636250
338.916016	97.844002	1338.889038	-33.035625	0.065625	-15.045625
178.303009	107.542999	1028.826050	4.051250	-42.511875	-3.062500
208.742004	110.836998	977.342041	4.051250	-1.955625	-10.123750
165.981003	87.535004	1022.726013	33.018124	-1.955625	-10.123750
165.981003	87.535004	966.301025	18.501875	23.870001	-3.981250
73.444000	98.820000	966.301025	2.590000	-7.866250	9.401875
197.639999	5.978000	987.163025	-9.541875	-16.970625	-1.658125
259.615997	-14.579000	918.354980	-8.474375	-0.634375	0.586250
51.667000	142.313004	1014.734985	5.363750	-21.008751	5.626250
108.580002	99.490997	954.283997	18.138750	-6.181875	-4.501875
139.445999	208.863998	956.785034	5.591250	3.097500	-5.320000
139.934006	154.634995	943.669983	14.498750	8.925000	-8.531250
258.640015	156.160004	1023.640991	10.368750	5.355000	-3.189375
168.238007	156.037994	1016.320984	-9.725625	2.988125	2.953125
210.816010	51.300999	913.963013	-12.880000	3.976875	5.446875
95.831001	142.740005	1052.005981	-1.741250	0.481250	9.607500
178.425003	120.841003	1050.664062	-2.765000	9.397500	1.605625
247.354996	54.656002	909.265991	9.126250	-3.325000	1.566250
116.815002	71.003998	953.307983	-1.334375	-3.206875	-1.150625
223.503998	80.825005	1033.766968	-1.793750	8.264375	-6.829375
80.398003	100.710999	897.005005	-17.880625	-10.250625	3.766875
191.845001	75.822998	1053.469971	-26.630625	7.043750	1.435000
28.487000	85.095001	875.411011	-19.639376	3.469375	10.368750
212.889999	98.209999	1178.825073	-19.731251	2.384375	-1.334375
0.671000	37.453999	1030.717041	-7.122500	5.328750	-0.813750
-85.705002	80.520004	1008.879028	-27.575624	-4.042500	-8.010625
102.906998	34.892002	1077.077026	-11.703125	-6.133750	-1.911875
-218.563004	30.378000	863.820984	-1.181250	-15.439375	-1.076250
12.444000	-8.113000	999.546021	5.814375	-5.320000	-14.647500
-199.408997	34.770000	971.242004	11.383750	-28.231874	-1.203125
-228.628006	65.391998	953.552002	3.819375	7.962500	-4.401250
159.087997	-24.217001	1004.242981	5.766250	-20.085625	-0.183750
-13.298000	16.409000	998.387024	9.463125	-19.560625	0.560000
23.973000	-26.535000	935.130005	-8.850625	-14.266875	-2.664375
143.593994	-32.146999	1027.972046	-7.192500	-19.075001	-5.005000
-1.647000	-4.148000	978.562012	8.640625	11.370625	-11.738125
-13.359000	60.695000	1078.785034	-1.995000	4.891250	-6.628125
110.166000	-42.395000	974.963013	-9.769375	-13.868750	-11.165000
-29.036001	45.750000	1050.907959	-10.058125	-9.073750	-6.978125
-83.875000	-23.241001	1033.096069	-17.198126	-10.010000	4.843125
66.368004	-32.513000	1042.795044	-16.248751	-3.360000	6.728750
112.972000	-10.675000	1111.237061	15.653750	-5.337500	6.566875
50.507999	-17.995001	1027.422974	24.858749	3.478125	2.870000
180.499008	26.352001	1075.430054	11.471250	12.188750	-0.367500
89.426003	0.671000	977.708008	0.188125	-8.063125	9.813125
9.516000	41.174999	1019.309998	-5.376875	8.719375	3.937500
81.862000	22.204000	951.173035	3.097500	14.166250	1.146250
46.726002	12.505000	940.681030	3.793125	-8.509375	9.056250
58.072002	3.355000	981.429016	5.337500	-2.957500	2.633750
-5.490000	-4.697000	952.332031	4.978750	-1.566250	-0.546875
-61.549000	57.096001	1016.138000	6.466250	-5.123125	3.058125
-72.041000	23.546000	1078.114014	12.114375	-1.225000	4.401250
-232.714996	49.105000	1036.328979	7.472500	1.128750	8.417500
-226.981003	64.416000	997.533020	-7.231875	3.403750	13.046250
-173.179001	23.607000	935.130005	-9.708125	-5.425000	21.481251
-74.237000	64.111000	1008.817993	-16.463125	-21.573126	27.216875
-4.087000	56.424999	1161.196045	-0.647500	-23.751875	18.204374
47.396999	2.867000	982.405029	26.079374	23.091249	6.553750
190.869003	31.964001	1149.484009	22.290625	15.583750	3.500000
142.251999	46.116001	937.875000	15.168125	16.108749	11.943750
185.195999	22.753000	964.044006	-0.498750	-43.312500	13.448750
231.678009	-8.418000	1065.609009	-21.966875	-27.177500	-6.864375
281.027008	-32.025002	886.390991	-6.925625	-6.286875	-12.385625
149.389008	28.914000	927.627014	8.863750	13.208125	-4.370625
327.265015	-63.684002	942.572021	10.626875	21.415625	5.215000
139.201996	33.367001	849.608032	1.465625	27.006874	14.446250
244.610001	56.547001	1262.273071	12.985000	-35.931873	3.955000
399.671997	-152.195007	964.044006	20.094376	-30.725624	-9.607500
263.580994	157.380005	1063.046997	18.348749	-8.697500	-16.590000
312.869019	54.716999	928.968994	3.346875	-12.022500	-17.058125
323.787994	-21.106001	952.759033	-25.278749	-2.730000	-18.370625
280.295013	97.294998	912.499023	0.962500	-1.076250	-10.307500
237.229004	56.669003	1023.763000	11.650625	2.323125	-8.260000
355.569000	37.209999	1087.630005	7.319375	4.016250	-9.362500
301.278992	89.853004	1037.122070	11.760000	12.578125	-4.541250
274.072998	118.584000	1113.982056	-4.130000	24.036249	-1.513750
302.437988	43.737000	1023.213989	-6.055000	23.104376	0.358750
212.585007	50.325001	966.423035	1.365000	39.729374	2.738750
161.162003	98.697998	1043.832031	3.465000	33.796875	-7.026250
368.135010	-4.087000	902.799988	-3.950625	8.631875	-24.381874
277.428009	123.525002	975.877991	-6.816250	7.831250	-17.351250
188.063004	91.987999	936.289001	-9.178750	3.797500	-12.166875
185.928009	32.085999	860.832031	-9.065000	-1.491875	-2.804375
38.368999	5.185000	886.695984	-6.453125	10.447500	3.688125
-29.036001	121.207001	875.411011	-13.842500	27.440001	-2.065000
75.029999	-18.788000	987.041016	-11.003125	-0.035000	0.953750
-121.817001	64.355003	999.790039	-1.828750	6.733125	7.857500
38.979000	112.362000	1050.114990	6.265000	-26.499374	22.518126
-88.084000	-35.929001	1034.437988	36.067501	-37.134998	34.155624
-123.098000	45.445000	1003.083984	32.773125	13.654375	0.306250
4.087000	-18.422001	926.955994	4.326875	-0.065625	0.621250
-96.563004	101.260002	1043.161011	-34.404999	-9.830625	-5.368125
10.370000	60.817001	981.367981	-38.360001	18.900000	-9.480625
-60.084999	55.998001	962.824036	-21.914375	-9.100000	-1.281875
-15.372000	43.371002	1108.675049	21.853125	7.393750	-10.224375
28.914000	35.319000	1135.332031	2.690625	-11.663750	-1.264375
56.608002	35.868000	1065.487061	-23.038750	-25.466875	2.034375
34.952999	-2.135000	1013.759033	-16.786875	2.371250	3.740625
-53.497002	1.403000	986.065002	-14.813750	-10.136875	3.815000
-49.348999	-29.402000	880.108032	-4.217500	1.063125	-4.891250
36.173000	-32.208000	968.679993	2.240000	14.017500	-12.066250
19.886000	-18.910000	976.182983	1.421875	-8.741250	-5.298125
-11.468000	-4.148000	999.973022	11.606875	6.208125	-8.601250
21.837999	-1.159000	1009.733032	6.046250	4.956875	-4.510625
21.106001	1.159000	984.845032	6.046250	4.956875	-0.643125
21.106001	-16.104000	1039.867065	-3.010000	-7.809375	-0.643125
54.351002	-16.104000	1039.867065	3.097500	7.026250	-5.411875
24.644001	4.209000	1006.866028	5.455625	5.919375	-3.635625
-11.224000	7.991000	1008.085999	3.325000	1.045625	-2.826250
47.824001	-18.361000	1026.081055	4.628750	10.311875	-4.650625
-79.788002	8.174000	1026.020020	9.843750	17.517500	-2.883125
-214.658997	29.707001	1048.406982	14.984375	22.946875	-0.717500
-257.968994	17.873001	1062.131958	18.584999	28.105000	1.697500
-306.830017	82.654999	1062.131958	7.100625	22.277500	8.750000
-132.553009	-1.281000	1064.633057	-3.788750	13.930000	6.234375
-128.039001	22.631001	1047.735962	6.715625	30.327499	9.187500
-264.069000	93.269005	998.204041	7.004375	32.169376	3.495625
-49.532001	-9.821000	1032.546997	9.174375	10.399375	-3.342500
-343.186005	137.311005	879.010010	27.733126	25.655001	-9.988125
9.516000	70.150002	1109.712036	13.855625	11.151875	-18.348749
87.961998	-26.962000	857.781982	1.111250	-13.715625	-1.198750
-11.773000	4.514000	1046.942993	7.861875	25.593750	4.208750
-73.200005	106.322998	944.341003	-3.740625	8.671250	6.020000
-41.968002	110.348999	906.398987	-12.608750	2.861250	13.413750
-55.265999	41.297001	1050.603027	-8.776250	-6.689375	4.064375
37.332001	75.091003	907.924011	7.271250	-9.738750	-0.958125
-53.131001	68.502998	1042.124023	28.056875	-24.241875	2.520000
86.375999	18.177999	979.781982	6.755000	-15.995000	-7.691250
23.302000	157.136002	992.713989	3.303125	-17.036249	-6.833750
78.507004	80.764000	999.484985	10.675000	-20.658751	-6.658750
106.017998	100.955002	984.540039	0.713125	-7.131250	-11.230625
212.402008	120.474998	1077.625977	-2.139375	-17.482500	-9.598750
139.018997	91.134003	988.627014	-8.881250	-7.905625	-11.694375
274.256012	112.423004	1014.186035	-30.450001	7.590625	-7.271250
168.360001	5.490000	971.181030	-47.359375	-2.161250	6.466250
116.875999	-71.492004	945.561035	-37.751877	3.049375	1.789375
209.229996	-17.019001	1015.101013	-12.621875	7.406875	-5.547500
101.503998	43.554001	1030.046021	17.338125	-10.158750	-5.363750
94.000999	48.983002	956.906982	23.340626	2.279375	-12.403125
133.651001	11.041000	917.379028	-2.200625	-6.076875	-16.244375
63.623001	20.679001	856.806030	-14.446250	-11.834375	-13.702500
21.899000	9.333000	953.734985	10.613750	8.693125	-8.802500
-44.774002	74.603004	981.124023	38.661877	-0.840000	-8.855000
-43.798000	28.914000	892.002991	68.512497	11.300625	-4.847500
-49.837002	60.268002	923.052002	76.562500	18.129999	-5.215000
-160.307999	209.046997	1062.619995	59.731876	22.924999	2.786875
-155.123001	253.882004	1099.525024	27.986876	-0.398125	5.556250
-33.916000	165.615005	1009.244995	-8.404375	-7.507500	3.303125
-66.612000	252.357010	1019.371033	-31.574375	-32.309376	8.719375
-56.791000	139.445999	1015.040039	-36.706249	-38.968124	8.916250
-38.003002	105.042000	997.960022	-40.788124	-20.461876	10.390625
-38.552002	84.912003	1039.196045	-43.203125	-34.125000	15.465625
-72.711998	64.416000	1034.682007	-47.123123	-35.896873	11.777500
40.931000	40.077000	1067.622070	-25.042500	-19.530001	7.262500
-44.225002	67.954002	1073.539062	7.315000	-5.862500	2.305625
57.035000	50.142002	1047.187012	14.363125	-3.478125	-2.016875
30.439001	39.101002	941.291016	13.440000	1.618750	-4.108125
1.220000	94.611000	1010.953003	2.388750	-4.007500	-3.185000
-33.184002	82.532997	979.660034	-8.330000	-10.539375	5.617500
-5.856000	37.942001	1046.211060	-1.933750	-4.935000	11.270000
49.715000	35.624001	1045.417969	2.677500	0.157500	7.787500
41.297001	50.630001	1043.709961	11.786250	-6.234375	6.807500
17.873001	73.993004	1007.598022	6.050625	3.338125	-4.392500
123.098000	57.096001	916.463989	7.783125	10.066875	-3.854375
34.587002	82.167000	1006.988037	14.595000	1.859375	5.687500
25.315001	86.925003	971.729980	6.531875	1.115625	-1.071875
107.665001	68.442001	1009.489014	-2.187500	-5.363750	1.828750
-61.366001	80.398003	1041.880005	-4.895625	-4.865000	0.148750
-99.002998	97.599998	1073.234009	1.045625	30.979376	-2.861250
-173.423004	67.954002	1092.448975	11.825625	21.013124	5.271875
-330.376007	144.082001	1117.581055	18.108126	23.113125	9.428125
-238.876007	110.531998	1173.578979	15.093750	59.206875	1.986250
-334.524017	137.981995	1083.421021	19.000626	65.970627	6.221250
-272.182007	122.487999	933.848999	6.055000	23.187500	13.160000
-66.673004	48.373001	953.247009	13.868750	14.682500	1.570625
-126.880005	119.987000	916.525024	21.831249	21.105000	-2.445625
-112.239998	233.813004	940.437012	9.966250	0.052500	6.930000
25.498001	70.333000	762.804993	-1.365000	8.430625	37.226875
-268.888000	335.988007	1080.005005	-7.739375	19.018126	35.065624
131.638000	73.200005	996.191040	3.941875	-24.333750	18.274376
85.278000	102.968002	1092.083008	33.201874	2.279375	-6.584375
58.011002	197.518005	1046.760010	46.589375	12.858125	-16.191875
4.209000	186.354996	1024.617065	40.114376	5.648125	-17.228750
4.758000	177.326996	921.527039	19.092501	18.598125	-23.476250
129.442001	186.721008	1000.400024	20.785625	-12.915000	-17.548124
-5.917000	267.118988	948.854980	20.860001	-8.968750	-19.193125
112.606003	256.748993	952.515015	5.805625	4.068750	-22.491875
159.087997	261.873016	931.591980	-6.418125	-12.302500	-11.519375
139.201996	239.791000	975.268005	-24.460625	0.910000	-10.215625
152.865997	186.843002	843.203003	-39.519375	5.512500	-5.713750
126.575005	170.678009	977.463989	-39.698750	9.196250	1.303750
69.479004	147.681000	1015.467041	-46.418751	21.096251	1.715000
38.430000	167.078995	963.678040	-42.739376	9.043125	4.563125
-29.585001	71.370003	960.262024	-35.476875	4.287500	-2.419375
134.992996	78.385002	1068.842041	-35.157501	13.588750	-7.761250
-52.216000	8.601000	862.906006	-42.161877	-0.581875	-6.798750
17.629000	19.398001	998.447998	-41.899376	14.857500	-16.016874
-10.065001	-61.366001	901.213989	-32.672501	1.513750	-16.948750
-89.059998	-45.628002	843.447021	-31.666250	-11.690000	-13.339375
-27.694000	-3.660000	1183.765991	-14.196875	-2.200625	-7.446250
-167.384003	-89.364998	741.333008	11.830000	-32.235001	-5.613125
-94.976997	40.809002	1169.308960	15.128750	-10.946250	-8.242500
-85.948997	-76.920998	950.502014	15.369375	-34.063751	3.430000
-208.619995	-7.381000	956.785034	21.704374	-26.718124	3.867500
-184.647003	66.368004	1259.588989	13.081250	-0.179375	-3.937500
-112.423004	-33.123001	794.463989	13.081250	-0.179375	-2.909375
-112.423004	-16.469999	1102.391968	-3.416875	-30.375626	-2.909375
-98.576004	-16.469999	1102.391968	2.835000	-12.451250	-4.834375
-121.939003	16.958000	967.887024	-19.162500	-10.185000	-4.423125
-77.225998	-61.854000	1045.296021	-43.684376	-6.720000	-10.447500
-101.320999	-131.455002	999.911987	-28.656250	-6.151250	-15.833125
-77.897003	-39.040001	1195.539062	-32.326874	-22.990625	-13.667500
-198.798996	-62.281002	1108.308960	-2.817500	-4.585000	-4.939375
-134.809998	-125.660004	991.799011	26.858126	-6.623750	-1.824375
-30.743999	-104.981003	1120.143066	23.935625	0.923125	-3.268125
-93.818001	-19.215000	1049.993042	24.797501	-2.611875	2.279375
-63.928001	-67.832001	994.483032	9.205000	-4.274375	4.344375
-71.918999	-33.123001	981.551025	-11.659375	5.254375	5.525625
-74.298004	-39.223000	1038.463989	4.116875	-8.846250	9.699375
-113.764999	-45.688999	994.056030	26.503750	-2.983750	5.525625
-117.973999	-17.323999	973.010986	26.534374	5.158125	2.760625
-80.215004	-6.100000	982.770996	15.719375	-1.098125	3.084375
-114.436005	-2.257000	972.035034	-7.546875	-2.769375	0.787500
-78.873001	-5.490000	1058.411011	-13.724375	2.279375	0.227500
-66.124001	-28.365000	1047.919067	-0.113750	-2.572500	-0.831250
-105.712997	-5.307000	1103.428955	5.486250	12.508125	-0.350000
-120.048004	-46.665001	1005.768005	6.313125	15.106875	0.398125
-144.996994	-37.149002	969.533997	-8.338750	1.855000	1.579375
-88.999001	-22.204000	1068.049072	-8.146250	0.901250	2.012500
-232.288010	-12.383000	878.888000	4.799375	6.002500	0.770000
-124.318001	-9.211000	1169.492065	8.351875	10.342500	-6.352500
-210.755005	0.671000	1105.076050	30.213751	8.050000	-0.336875
-271.084015	-5.185000	934.520020	24.815001	-5.241250	-0.962500
-211.182007	75.701004	1085.190063	-0.844375	18.611250	-1.824375
-63.379002	20.557001	987.101990	-24.219999	4.528125	3.430000
-165.859009	48.312000	1049.810059	-51.861252	-13.785625	2.625000
-86.986000	-13.176001	973.559998	-56.468124	8.920625	1.907500
1.708000	-130.235001	910.851990	-34.404999	35.883751	-6.370000
5.795000	-71.858002	1113.494019	-16.594376	20.825001	-9.191875
38.796001	-144.630997	926.833984	-0.739375	-7.555625	-5.560625
24.034000	-128.832001	972.950012	22.067499	23.922501	-8.675625
-34.952999	-0.793000	992.531006	34.225624	0.625625	-10.351250
54.534000	-97.599998	864.858032	28.223125	-7.686875	-8.277500
-33.489002	-26.657000	983.747009	30.996876	9.366875	-7.669375
115.107002	-7.381000	899.932983	20.798750	12.385625	-14.546875
40.687000	21.472000	978.684021	12.048750	-1.159375	-0.564375
89.181999	-10.492001	999.729004	-0.931875	2.743125	-4.703125
134.444000	39.711002	980.270020	-7.923125	-13.387500	-1.500625
98.332001	30.927000	1008.330017	-12.683125	-10.434375	1.662500
238.876007	-34.282001	1037.975952	-4.239375	-1.872500	-0.686875
142.496002	-65.879997	974.902039	-0.188125	-15.601250	5.276250
95.770004	-58.132999	978.501038	-6.597500	-0.183750	4.733750
88.633003	-44.042000	988.932007	8.023750	-1.054375	5.171250
33.611000	-38.979000	1045.357056	24.753750	-0.984375	6.431250
-19.337000	-17.750999	930.554993	22.225000	-10.618125	4.510625
37.271000	-45.079002	892.613037	28.393749	-15.054375	-6.746250
59.230999	10.797000	1066.707031	45.154373	-6.501250	-3.132500
46.116001	142.679001	995.947021	43.990623	-14.271250	0.774375
-39.101002	58.621002	838.994019	35.188126	-11.060000	2.703750
48.922001	131.882004	1033.766968	16.738750	2.380000	6.155625
-62.341999	100.528000	909.632019	1.478750	-17.272499	8.330000
-61.854000	138.653000	1028.459961	-13.208125	-16.834999	10.115000
-50.996002	92.110001	975.817017	-10.465000	-4.873750	1.190000
-99.674004	42.456001	851.437988	-21.371876	-14.608125	4.221875
-21.350000	134.932007	1057.922974	-14.962500	-23.445625	0.835625
42.639000	31.293001	1000.949036	-4.698750	-20.387501	-4.935000
51.056999	86.558998	1047.858032	-1.448125	-2.196250	-2.695000
-55.265999	107.299004	1101.598999	16.047501	7.756875	5.044375
57.889000	31.903000	983.259033	21.201250	12.368125	2.576875
-5.002000	64.171997	977.281006	20.155624	5.993750	7.288750
-98.697998	67.404999	898.408020	6.755000	-6.068125	7.166250
-37.576000	105.469002	1088.301025	-0.533750	11.865000	-3.189375
-38.186001	72.956001	1000.095032	7.017500	-22.706249	3.478125
17.507000	110.471001	1131.610962	15.487500	-8.925000	-2.992500
55.937000	122.487999	1184.925049	20.011250	13.702500	-5.499375
-35.990002	179.949997	1039.867065	-2.725625	-8.277500	-2.747500
-27.023001	77.409004	1001.315002	-15.290625	-0.914375	1.128750
-56.608002	94.183998	912.132996	-15.251250	-7.332500	1.496250
-117.852005	108.214005	1011.441040	2.345000	-2.598750	-0.805000
-74.298004	77.225998	979.903992	27.304375	-7.367500	-0.008750
-72.834000	171.410004	1031.083008	23.047501	-7.161875	0.870625
-48.007000	171.044006	966.117981	18.886875	7.240625	-2.051875
-130.783997	182.634003	999.851013	13.160000	9.511250	2.323125
-132.613998	198.860001	1053.286987	15.273125	1.658125	3.290000
-134.809998	199.958008	1067.744019	31.272499	10.981250	-2.069375
-80.946999	240.035004	1032.729980	52.215626	13.619375	-6.785625
-204.106003	329.278015	973.377014	58.126251	3.924375	1.417500
-223.260010	378.444000	1037.854004	60.510624	5.656875	2.677500
-105.224998	322.019012	927.322021	49.616875	4.042500	1.592500
-121.634003	330.558990	946.658997	33.678749	0.743750	6.422500
-158.539001	409.554016	944.280029	19.516874	8.522500	2.323125
-83.082001	369.843018	960.505981	8.614375	22.443750	3.093125
-130.540009	406.442993	943.914001	-1.925000	14.039375	6.278125
-82.228004	347.394989	905.423035	-4.278750	2.874375	1.365000
-70.272003	344.040009	918.049988	15.128750	14.555625	-1.750000
-118.340004	449.936005	1009.428040	20.523125	45.106251	-21.721874
98.332001	334.829010	856.317993	36.220627	20.208124	-24.360001
-66.306999	410.164001	916.220032	38.412498	20.855625	-25.711876
-42.151001	448.654999	844.911011	26.092501	11.987500	-23.979376
6.466000	395.341003	787.692993	-2.703750	1.859375	-12.145000
41.418999	442.860016	948.976990	-17.403749	27.033125	-4.217500
-12.871000	429.989014	829.294983	-29.487499	-6.943125	13.580000
-11.956000	301.462006	940.681030	-42.520626	-7.603750	1.448125
59.475002	352.640991	956.601990	-42.520626	10.963750	-13.230000
35.806999	346.053009	834.906982	-32.803749	10.963750	-13.230000
35.806999	346.053009	834.906982	-15.754375	-9.489375	-9.441250
144.447998	309.880005	956.846008	-19.954374	11.501875	-18.580626
100.710999	364.718994	903.471008	-16.480625	1.395625	-12.302500
50.020000	269.010010	851.437988	-26.538750	-1.076250	-6.444375
43.249001	302.255005	930.372009	-37.594376	-1.085000	0.428750
-24.827000	237.656006	910.851990	-23.397499	-3.018750	8.321250
-57.827999	273.829010	1054.140991	-5.223750	1.356250	11.143125
-168.848007	296.765015	971.486023	6.024375	-2.458750	4.038125
-64.171997	236.436005	915.671021	-9.922500	6.956250	-3.819375
-0.488000	282.429993	1032.058960	-12.897500	7.148750	-3.018750
-77.592003	243.451004	951.721985	-20.243126	5.678750	-6.435625
-6.527000	236.863007	1004.853027	-34.369999	1.435000	-4.930625
-102.723999	232.044006	1002.596008	-36.771873	-1.054375	-1.645000
-35.806999	115.595001	922.564026	-26.105625	-6.378750	-3.600625
-77.653000	160.796005	971.119995	-22.443750	-5.381250	5.560625
-145.302002	188.367996	967.216003	-20.164375	-3.521875	4.668125
-85.522003	65.514000	881.510986	-3.911250	-10.591875	2.222500
-208.132004	129.076004	887.122986	-7.284375	-4.921875	5.893125
-111.569000	163.541000	1084.702026	-12.372500	0.809375	-6.387500
-129.442001	37.576000	897.309998	-15.299375	-21.805000	0.901250
-185.257004	168.421005	1053.225952	-18.576250	-17.666250	6.890625
-53.008999	9.272000	964.958984	-17.224375	-11.151875	-5.241250
-118.096001	82.959999	927.992981	-25.094999	-21.844376	-0.682500
-187.331009	63.074001	975.268005	-35.214375	-7.214375	0.030625
-166.225006	25.193001	1032.364014	-56.840000	-13.741875	-4.143125
45.506001	-48.373001	1134.905029	-61.932499	-1.015000	-13.951875
-150.242996	-52.216000	1007.963989	-12.219375	15.400000	-6.155625
-196.908005	2.867000	1035.047974	7.665000	2.826250	-7.210000
-64.598999	-91.987999	992.286987	8.610000	-0.546875	-9.756250
-200.628998	-47.091999	1050.297974	9.948750	11.523750	-4.178125
-85.948997	-88.266998	1012.539001	8.955625	32.921875	-23.231251
-201.604996	-11.102000	976.609985	4.488750	8.470000	-17.088751
-166.102997	-28.792000	973.316040	2.861250	-5.289375	-15.798125
-141.703003	-23.729000	952.637024	3.132500	-5.621875	-10.040625
-220.454010	-36.539001	924.088989	-8.837500	-15.785000	-2.992500
-125.050003	-95.709000	995.458984	-12.950000	-16.498125	-4.401250
-128.953995	-38.307999	1054.812012	2.288125	-19.004999	1.535625
-183.061005	-34.831001	989.054016	8.050000	-6.860000	2.620625
-142.007996	-55.144001	996.801025	4.033750	-7.428750	2.983750
-182.572998	-33.611000	1012.843994	6.308750	-1.286250	4.033750
-77.835999	-42.882999	1135.332031	-5.175625	-15.478750	7.826875
-26.535000	-88.938004	941.778992	-38.946251	-56.363125	14.568750
-86.986000	-120.169998	1022.177002	-70.061249	-12.551875	6.496875
-279.441010	-146.583008	963.739014	-74.217499	23.760626	6.282500
-340.136017	-192.028000	1060.484985	-40.687500	7.599375	-1.763125
-201.910004	-245.158997	1024.129028	0.262500	9.651250	-10.373125
-351.299011	-183.975998	941.169006	9.493750	28.721874	-6.934375
-224.175003	-217.891998	927.687988	14.367500	40.604374	-11.318125
-207.888000	-175.070007	1018.700012	22.041250	15.745625	1.701875
-289.506012	-141.093002	942.328003	22.487499	30.804375	-7.708750
-122.244003	-104.493004	1204.261963	-1.675625	6.335000	-12.950000
-106.139999	-201.788010	860.221985	-3.303125	-25.948126	-11.493125
-94.672005	-86.070999	1065.487061	19.048750	26.092501	-11.628750
-81.008003	-86.132004	1054.873047	-2.423750	37.231251	-3.491250
-143.593994	-193.858002	932.445984	-17.491249	11.305000	-3.237500
-9.821000	-201.361008	1050.786011	-7.923125	23.034374	0.770000
-120.902000	-176.716995	1019.919983	-4.558750	-17.810625	9.476250
-128.649002	-183.548996	917.135010	3.513125	-21.288750	5.862500
65.819000	-214.110001	964.776001	21.406876	-6.050625	-0.818125
48.678001	-114.985001	866.260986	47.123123	-30.703751	-1.365000
109.678001	-145.180008	962.275024	43.653751	-8.435000	-4.095000
150.121002	0.061000	1054.323975	34.256248	-15.592500	-5.438125
213.988007	-73.261002	983.502991	28.008751	-11.200000	-13.216875
199.470001	-20.557001	1071.281982	31.548124	-6.098750	-11.173750
74.298004	23.424000	907.130981	15.308125	-5.578125	-4.891250
122.000000	10.248000	1049.383057	4.493125	6.365625	1.356250
8.235000	-17.873001	1016.382019	-5.801250	-11.751250	9.406250
69.174004	-20.496000	958.127014	-26.582500	1.960000	5.429375
48.434002	-47.153000	1066.401978	-8.378125	-14.004375	8.382500
12.261000	-63.562000	921.161011	-20.155624	-9.506875	9.174375
144.509003	-24.339001	1093.973999	-30.100000	4.768750	7.131250
60.573002	-86.132004	896.882996	-27.566875	-7.135625	6.960625
113.642998	-149.449997	872.971008	-27.873125	8.172500	2.301250
38.674000	-69.600998	1030.594971	-21.315001	7.310625	9.003750
-29.585001	-176.046005	918.781982	-14.542500	-0.297500	5.158125
103.151001	-175.923996	974.353027	1.798125	6.050625	2.174375
-103.883003	-128.953995	952.148987	11.003125	-10.465000	1.277500
-107.725998	-142.617996	957.882996	14.385000	-18.510626	-11.458125
31.354000	-145.180008	1057.922974	22.662500	-24.136875	-15.535625
-98.637001	-118.950005	933.544006	23.113125	-15.194375	-11.528125
-79.971001	-58.560001	1053.958008	18.930626	3.368750	0.363125
-206.790009	-109.800003	981.307007	2.751875	-17.679375	10.465000
-181.475006	-61.061001	1011.380005	6.208125	-0.520625	7.240625
-25.010000	-108.092003	1028.093994	15.920625	29.999374	1.054375
-33.733002	-81.129997	992.348022	10.648750	2.721250	9.721250
-52.094002	-25.193001	1038.952026	23.638124	4.554375	0.673750
-23.180000	-58.804001	1006.866028	22.789375	19.057501	-1.890000
-8.906000	-33.000999	969.717041	6.724375	0.074375	7.280000
-87.351997	-81.739998	897.492981	5.608750	-1.225000	4.405625
-158.173004	20.923000	971.851990	18.851875	8.373750	-0.494375
-159.697998	-61.854000	879.132019	39.173752	-20.107500	-1.474375
-125.903999	-21.410999	1056.458984	22.701876	-1.553125	0.437500
-80.764000	20.984001	1096.230957	-12.114375	13.470625	-5.131875
-123.280998	50.264000	1074.515015	-41.304375	-15.824375	2.940000
-7.503000	-34.831001	1043.588013	-47.127499	26.879999	-10.294375
-5.612000	-103.761002	1029.313965	-31.342501	6.606250	-4.305000
-232.714996	-7.747000	1031.021973	-23.913750	-27.330626	7.096250
-91.987999	-93.878998	976.793030	-23.913750	-10.115000	2.358125
-56.424999	-94.306000	994.544006	2.423750	-10.115000	2.358125
-56.424999	-94.306000	1013.270996	32.746876	-5.547500	7.245000
-76.860001	-58.376999	1013.270996	29.014999	-5.810000	5.691875
-4.514000	-30.622000	1036.938965	14.166250	-3.793125	4.291875
-20.618000	-46.848000	1075.247070	2.756250	-9.485000	6.829375
-97.722000	-9.211000	992.165039	-15.736875	-1.793750	2.642500
-96.624001	-72.711998	1020.286011	-18.838751	-0.866250	2.791250
-269.498016	-74.664001	952.637024	-10.972500	7.568750	-1.163750
-266.752991	-78.323997	1063.779053	-17.583124	17.198126	-7.682500
-240.096008	-95.891998	1090.802002	-2.476250	2.104375	-5.306875
-386.800995	-27.632999	1034.620972	10.408125	5.687500	-0.070000
-229.055008	-82.289001	1034.193970	-12.906250	1.548750	3.206875
-205.387009	-94.916000	1087.691040	-35.918751	-27.768126	14.857500
-288.957001	-181.597000	859.429016	-43.736874	16.292500	14.538125
-55.510002	-210.022995	1271.422974	-44.865623	31.272499	3.635625
-197.639999	-218.563004	818.376038	-27.811874	8.063125	11.305000
-47.336002	-214.415009	1106.479004	-10.408125	34.418125	10.815000
-17.446001	-182.389999	1082.078979	-14.560000	2.043125	6.444375
-75.334999	-213.744003	782.447021	-6.212500	11.523750	7.476875
-27.572001	-171.776001	1005.218994	-0.695625	7.135625	4.130000
-63.318001	-200.811996	892.064026	-19.131874	-10.556875	0.428750
-64.050003	-222.345001	837.225037	3.228750	4.746875	-4.891250
-47.458000	-249.307007	846.741028	29.146250	9.371250	-17.298750
54.595001	-194.772995	930.311035	32.151875	-20.684999	-24.150000
96.380005	-208.619995	1023.824036	41.024376	-14.560000	-23.786875
69.600998	-123.037003	1056.641968	35.625626	-6.855625	-24.876249
158.356003	-125.293999	964.044006	23.940001	-10.618125	-18.969999
143.227997	-158.722000	999.363037	17.788750	-9.108750	-13.728750
184.341995	-43.980999	1032.546997	2.506875	-0.966875	-6.855625
69.967003	-80.825005	903.226990	11.029375	-6.151250	-0.529375
141.703003	-138.897003	941.901001	18.536875	5.000625	1.828750
120.719002	-24.339001	1078.235962	31.985624	8.001875	6.090000
23.058001	-44.652000	981.002014	42.590626	-2.200625	6.168750
125.355003	-47.945999	1024.433960	27.741875	16.795626	1.098125
73.809998	-20.252001	1095.255005	12.385625	16.524376	5.967500
-9.089000	34.831001	1015.040039	2.056250	5.534375	4.856250
85.522003	-59.902000	914.207031	12.945625	6.155625	1.308125
-79.726997	22.264999	956.114014	20.212500	10.351250	9.323125
-20.496000	71.003998	985.028015	17.346874	4.143125	1.645000
-49.653999	38.552002	907.070007	29.999374	-6.510000	2.152500
-99.186005	111.264000	1005.585022	21.660625	2.135000	1.662500
-105.712997	58.621002	957.944031	11.655000	-7.280000	6.720000
-69.112999	57.218002	929.822998	8.474375	-21.148750	11.331250
-174.399002	71.492004	935.434998	5.858125	-13.317500	17.272499
-202.581009	114.680000	941.291016	16.502501	-15.264375	11.051250
-53.497002	89.121002	1075.125000	7.380625	-14.918750	-1.575000
-89.181999	90.889999	1048.529053	-0.345625	-14.262500	-1.540000
-114.741005	129.746994	1124.229980	-10.346875	-0.717500	-6.111875
-7.076000	64.171997	1054.750977	10.010000	-2.550625	-3.858750
-78.995003	116.570999	994.299988	17.793125	1.067500	-0.494375
-115.717003	92.049004	1120.630981	10.815000	22.080626	-6.405000
-70.393997	83.387001	976.366028	-2.423750	-5.928125	-2.266250
-13.298000	130.417999	1087.141968	-15.190000	-3.867500	-1.631875
33.549999	73.749001	982.648987	-5.871250	-0.634375	3.193750
-46.604000	34.221001	933.056030	-18.851875	-0.350000	2.231250
-48.922001	33.062000	848.205017	10.968125	2.660000	2.524375
-174.337997	35.380001	925.736023	28.275625	-1.295000	5.818750
-61.671001	58.255001	958.187988	14.153125	-13.597500	2.419375
-62.708000	103.578003	981.307007	11.108125	-17.854376	4.611250
-158.356003	180.438004	1000.460999	-10.495625	-25.991875	6.365625
170.617004	31.537001	1042.734009	-5.000625	-22.780624	5.026875
-227.347000	180.132996	1048.285034	25.934999	-14.914375	11.287500
-85.522003	133.102005	1034.560059	21.936251	-4.318125	2.034375
98.697998	88.571999	996.191040	25.361876	5.525625	-1.015000
-116.875999	189.527008	1005.829041	8.736875	-5.429375	3.556875
75.579002	155.428009	1032.364014	-23.791250	-1.780625	-1.102500
-28.731001	91.134003	906.582031	-34.755001	-5.280625	4.663750
-315.553009	170.800003	1032.608032	-37.467499	-7.201250	10.565625
-160.430008	113.642998	974.718994	-28.564375	-5.381250	5.735625
-163.968002	117.181000	1153.083008	-0.844375	-8.658125	3.863125
-246.561996	131.272003	1118.862061	6.063750	2.633750	3.145625
-70.820999	82.106003	1047.308960	-7.183750	6.212500	1.995000
-97.051003	90.097000	1084.275024	10.631250	22.868126	4.160625
-195.626999	105.774002	904.325012	2.996875	30.953125	2.765000
81.251999	41.602001	1079.760986	1.277500	11.086250	-2.174375
-73.809998	75.579002	1002.962036	22.566250	22.194374	-5.915000
-141.703003	128.039001	920.978027	18.256874	33.971874	-9.598750
18.971001	109.312004	1002.535034	25.156250	11.856250	-6.995625
-152.134003	109.556000	954.040039	32.165001	4.361875	-5.932500
-205.630997	173.727997	1039.256958	11.331250	23.135000	-11.099375
-130.662003	145.606995	973.804016	-2.060625	11.926250	-8.754375
-179.462006	120.597000	931.165039	-9.187500	5.473125	-8.780625
-73.566002	110.227005	1061.461060	-7.214375	12.521250	-10.766875
-139.568008	176.350998	927.871033	-1.159375	14.166250	-5.950000
-44.347000	50.507999	1013.393005	12.928125	10.001250	-5.976250
-88.023003	158.600006	1069.390991	1.356250	17.438749	-4.410000
17.323999	127.368004	1075.613037	6.028750	-10.815000	-7.704375
107.970001	84.729004	907.619019	29.032499	-10.828125	-13.838125
27.450001	205.326004	992.775024	16.874374	-20.606251	-4.112500
149.572006	143.472000	858.941040	4.991875	-45.841251	-3.071250
72.101997	122.305000	1006.927002	-0.923125	-9.909375	-0.927500
111.934998	183.122009	1149.911011	-13.260625	3.141250	-4.891250
127.612000	118.950005	914.268005	-4.746875	-2.279375	-8.973125
150.852997	134.809998	885.598022	-7.525000	20.321875	-12.696250
99.186005	213.988007	1008.574036	-10.626875	13.973750	-2.970625
53.436001	88.450005	862.113037	-11.235000	10.027500	-0.284375
59.841000	107.299004	1011.989990	-10.403750	29.190001	-4.335625
-53.802002	175.985001	1031.083008	1.561875	23.734375	-3.255000
-45.323002	95.160004	993.751038	1.561875	23.734375	-3.255000
-45.323002	95.160004	1039.683960	2.581250	15.645000	-8.194375
74.419998	81.984001	1039.683960	-2.668750	20.361250	-12.893125
-123.159004	185.684006	904.080994	-6.877500	27.689375	-5.031250
-76.250000	101.320999	1012.966003	-9.458750	25.068750	-4.628750
-122.975998	47.885002	861.625000	-9.948750	22.575001	3.644375
-283.345001	131.210999	952.332031	-10.478125	9.384375	13.623750
-245.158997	62.769001	962.031006	-18.077499	2.218125	12.845000
-245.708008	87.535004	886.208008	-2.261875	-14.402500	15.627500
-273.097015	118.096001	1087.630005	0.231875	-8.750000	7.533750
-197.029999	124.257004	996.496033	1.325625	-9.730000	5.306875
-160.735001	152.865997	928.237000	-0.923125	-18.020624	8.430625
-73.504997	152.744003	967.643005	-7.651875	-30.016874	9.533125
-194.956009	164.089996	872.666016	3.180625	-37.476250	14.748125
-139.018997	9.882000	935.984009	-15.054375	-18.003124	0.831250
-16.958000	4.209000	1087.630005	-33.411877	-14.857500	-5.744375
-182.938995	-10.492001	986.919006	-31.193750	-22.959999	-1.216250
-88.084000	-37.758999	1001.132019	-21.638750	12.337500	-13.072500
-120.779999	23.546000	985.515991	7.398125	17.994375	-7.039375
-329.705017	-14.945000	906.338013	8.155000	4.650625	-0.708750
-147.742004	97.904999	1076.650024	28.993126	23.896250	-5.805625
-277.855011	124.440002	1039.379028	56.761250	1.435000	4.939375
-199.958008	55.449001	1031.204956	33.490623	-17.355625	3.290000
-9.333000	40.869999	1006.804993	9.165625	-7.450625	2.572500
-203.191010	122.182999	914.390015	2.480625	-14.835625	9.751875
-98.942001	105.652000	1019.187988	-1.645000	-0.665000	4.125625
-127.551003	79.361000	945.195007	-2.261875	-2.642500	5.897500
-180.987000	109.190002	987.712036	-11.948125	-26.070625	3.486875
-144.509003	113.033005	1082.140015	-4.803750	-15.351875	-0.949375
-200.507004	88.145004	961.421021	-9.030000	-12.359375	1.421875
-74.664001	77.409004	1025.287964	-19.013750	-20.895000	-2.030000
-53.253002	64.843002	982.283020	-16.021250	-18.637501	0.665000
-158.539001	56.791000	935.862000	-9.786875	-13.755000	5.411875
-33.184002	57.827999	1119.105957	-2.900625	-6.877500	4.987500
-55.937000	42.700001	1021.384033	7.844375	-7.350000	4.436250
-143.044998	91.256004	1028.765015	7.048125	2.909375	2.992500
-239.852005	91.744003	997.228027	-0.735000	8.404375	5.210625
-319.395996	54.716999	988.139038	-2.270625	3.228750	5.372500
-290.970001	106.811005	1058.045044	7.853125	12.495000	-0.144375
-295.239990	114.619003	971.546997	10.290000	0.770000	3.885000
-242.841003	103.761002	1013.454041	20.737499	5.175625	3.460625
-191.113007	107.420998	972.401001	9.747500	3.941875	2.883125
-62.403000	74.907997	980.697021	0.988750	-10.696875	4.379375
-156.891998	84.973000	983.502991	11.865000	13.588750	-2.948750
-71.796997	89.609001	1145.640991	-7.931875	0.192500	-2.625000
44.957001	73.321999	1018.822021	-15.605625	-30.156876	5.320000
-112.118004	71.248001	1007.171021	3.355625	-11.151875	-4.278750
-52.094002	107.909004	1045.600952	18.239374	54.950001	-18.628750
-133.102005	148.535004	1003.632996	20.838125	29.540001	-16.913750
-65.819000	29.585001	868.335022	18.628750	22.855000	-13.978125
-42.517002	144.509003	1135.759033	7.958125	36.006248	-8.146250
-164.944000	136.578995	906.765015	-5.127500	1.561875	-3.373125
-46.786999	61.487999	1018.273010	5.989375	15.933750	-0.315000
-35.014000	112.667000	963.007019	4.283125	25.046875	-1.946875
33.733002	151.585007	964.410034	18.760000	2.349375	-9.638125
55.205002	107.420998	969.473022	39.830002	-3.010000	-13.768125
88.084000	167.505997	1017.968018	40.529999	-3.084375	-15.141875
41.602001	221.125000	991.677002	26.967501	-2.506875	-12.355000
73.809998	211.365005	979.355042	2.826250	-14.647500	-8.041250
27.328001	213.255997	952.637024	-24.285625	-3.298750	-6.912500
137.738007	177.753998	969.533997	-8.986250	-23.121876	0.520625
70.638000	168.421005	917.135010	-6.986875	-25.514999	1.400000
158.173004	199.470001	1095.255005	-31.250626	7.463750	-2.646875
90.584999	126.941002	1001.497986	-35.966873	-0.791875	3.377500
64.476997	108.214005	937.814026	-20.308750	-2.616250	3.793125
-9.943000	123.220001	951.966003	-15.041250	10.920000	5.836250
38.186001	73.931999	1030.777954	-22.487499	4.239375	4.340000
-65.453003	15.799000	867.846985	-37.016876	-1.693125	2.721250
-38.063999	47.945999	902.251038	-38.018749	8.990625	-6.208125
-40.504002	-20.434999	1014.613037	-9.821875	7.953750	-2.975000
-85.522003	36.844002	1075.307983	7.091875	-7.105000	-0.586250
-125.233002	32.330002	960.689026	9.401875	-8.596875	-5.910625
-134.261002	100.100998	1015.101013	13.024375	-10.408125	-3.303125
-66.794998	134.749008	989.237000	20.597500	-17.088751	-16.607500
-129.686005	82.654999	892.429993	37.594376	17.206875	-25.287500
-207.278000	246.623001	1083.786987	8.640625	-18.519375	-13.715625
-189.527008	9.150001	964.837036	-20.422501	-52.701248	-9.008125
-68.807999	-42.761002	996.617981	-28.231874	-8.028125	-13.842500
-188.307007	54.229000	1179.008057	-31.517500	15.400000	-7.647500
-145.912003	-2.745000	1013.393005	-22.605625	-27.488125	2.835000
-144.692001	-120.474998	948.794006	-3.325000	-4.055625	-1.260000
-28.243000	5.795000	1018.028992	-22.798124	-20.470625	-2.568125
-88.328003	51.362000	1019.432007	35.708752	-51.025623	1.351875
32.695999	-109.617004	922.564026	37.445625	-1.229375	-3.040625
30.622000	47.640999	1053.531006	5.201875	-3.941875	3.968125
-25.802999	21.533001	961.238037	1.640625	-23.047501	11.046875
15.738000	2.074000	992.348022	-0.809375	-0.599375	8.701875
-47.580002	77.714005	1067.988037	1.203125	1.964375	12.643750
-46.360001	28.059999	994.117004	6.103125	-25.886875	13.846875
0.976000	27.938000	1052.859985	0.319375	-18.213125	15.128750
-61.487999	67.039001	1075.613037	5.652500	-18.033751	13.890625
21.167000	63.195999	1103.612061	-3.053750	-16.406250	7.800625
84.424004	44.652000	1118.008057	-3.053750	-16.406250	7.800625
84.424004	44.652000	983.015015	-9.572500	-10.675000	5.818750
-111.081001	43.675999	983.015015	-9.170000	-7.787500	5.866875
-112.728004	44.164001	987.163025	-17.115000	-6.059375	5.298125
-81.374001	3.965000	913.231018	-11.379375	15.391250	-0.520625
-59.719002	9.943000	1067.865967	1.268750	14.310625	-3.635625
-163.296997	28.853001	1041.087036	6.041875	8.478750	-0.892500
-227.529999	0.915000	954.101013	0.315000	19.731251	-1.023750
-122.732002	-9.821000	992.408997	-19.368126	5.420625	5.149375
-167.384003	-40.625999	915.731995	-23.336250	-23.428125	7.533750
-81.434998	-21.533001	983.747009	-13.470625	-2.992500	0.385000
-72.651001	-20.740000	1121.302002	0.682500	26.346251	-6.448750
-101.077003	-9.150001	1124.901001	-0.551250	32.186874	-8.378125
46.542999	-48.007000	1274.900024	19.831875	47.424999	-15.894375
-87.901001	-51.118000	970.937012	52.688126	35.476875	-10.066875
-199.591995	101.992004	1126.670044	44.511250	75.687500	-10.399375
-76.860001	85.765999	991.189026	34.615002	53.729374	-0.061250
-10.187000	-31.537001	924.393982	23.590000	-4.453750	3.311875
-0.183000	103.334000	1044.320068	23.231251	24.158751	3.670625
-68.381004	91.805000	819.291016	23.703751	-16.174376	5.582500
-37.453999	63.623001	957.700012	20.321875	5.866875	-1.548750
75.945000	125.416000	935.191040	11.252500	-18.348749	-6.046250
-20.496000	148.656998	894.442993	2.222500	-17.500000	-6.330625
110.348999	102.113998	1162.477051	0.328125	4.116875	-14.450625
-19.032000	141.947006	853.512024	-0.831250	-9.235625	-14.678125
159.880997	39.101002	885.354004	-6.706875	-5.210625	-19.258751
171.044006	157.807007	1056.276001	17.316250	-24.018749	-12.048750
139.934006	180.621002	1009.549988	15.981875	-14.087500	-7.608125
237.473007	151.524002	1006.622009	2.467500	-5.337500	-1.666875
184.647003	214.232010	1056.214966	-6.943125	-5.967500	10.268125
80.093002	128.283005	977.585999	-19.713751	-0.809375	8.308125
120.841003	116.327003	937.630981	-16.489374	0.826875	8.146250
118.706001	109.983002	1050.968994	-3.688125	1.535625	6.466250
66.794998	86.193001	945.927002	-0.004375	-2.843750	8.303750
100.710999	144.570007	1001.803040	-17.644375	-11.970000	11.165000
41.785000	34.647999	954.893982	-14.678125	-13.995625	10.981250
11.346000	114.985001	961.786987	-11.655000	-3.731875	8.456875
23.546000	52.948002	968.984985	4.563125	-1.050000	8.032500
-86.498001	116.753998	913.596985	3.263750	-12.766250	9.782500
-39.771999	103.578003	965.934998	-14.424375	-3.377500	6.851250
-58.681999	81.191002	856.806030	-13.864375	-14.008750	9.117500
-32.330002	59.841000	935.252014	-13.645625	-5.188750	4.694375
19.825001	76.250000	1118.374023	-0.188125	18.895624	3.928750
-183.975998	64.965004	877.973022	9.957500	-1.080625	7.271250
-124.806000	47.091999	1066.218994	8.264375	26.753124	-3.740625
-191.540009	106.994003	1024.250977	-0.074375	-12.814375	-0.004375
-115.534004	65.086998	1010.403992	12.551875	7.385000	-7.188125
45.079002	-4.819000	1096.109009	27.890625	-0.774375	-1.675625
-88.023003	10.858000	943.731018	28.455000	-22.658125	2.078125
-167.018005	136.762009	1136.857056	8.666875	-13.750625	2.909375
-108.214005	126.331001	1048.773071	-15.806875	-32.654999	1.360625
-164.516998	76.860001	995.580994	-30.467501	-30.113125	1.483125
-99.002998	69.112999	1215.425049	-46.073124	-1.058750	-3.430000
10.248000	19.642000	1163.941040	-15.404375	9.751875	-6.733125
-165.981003	41.053001	919.330994	18.926250	-2.572500	-0.975625
-243.755997	101.870003	943.242981	17.574375	11.173750	-0.980000
-165.919998	59.719002	895.846008	-12.070625	2.773750	2.152500
-29.646000	3.843000	987.712036	-24.031876	-16.301250	3.241875
47.091999	-4.331000	1060.546021	-13.860000	-6.545000	-1.911875
-20.557001	50.202999	1110.626953	-5.718125	5.267500	-0.371875
