A_X[mg]	A_Y[mg]	A_Z[mg]	G_X[dps]	G_Y[dps]	G_Z[dps]	
28.609001	-8.662000	1004.609009	1.111250	-0.249375	-1.006250
23.118999	-15.555000	1006.622009	0.783125	-0.061250	-0.936250
25.437000	-12.017000	1002.230042	0.835625	-0.196875	-0.984375
25.132000	-13.298000	1004.975037	0.844375	-0.135625	-0.980000
27.084000	-16.104000	1006.012024	0.704375	-0.070000	-0.997500
23.424000	-13.786000	1000.643982	0.695625	-0.188125	-0.980000
34.892002	-13.176001	1008.635010	0.800625	-0.196875	-1.028125
23.607000	-17.080000	996.434998	1.076250	-0.236250	-1.028125
22.448000	-16.836000	1006.377991	0.975625	-0.013125	-1.001875
23.302000	-12.017000	1004.548035	0.796250	0.078750	-1.106875
21.594000	-19.459000	1006.012024	0.783125	-0.192500	-0.945000
21.106001	-12.261000	1002.230042	0.857500	-0.175000	-0.940625
23.729000	-14.152000	1001.132019	0.958125	-0.035000	-0.997500
24.034000	-5.795000	1005.096985	0.888125	-0.070000	-0.984375
25.986000	-15.799000	1006.866028	0.966875	-0.188125	-1.080625
19.337000	-11.773000	1005.158020	0.756875	-0.105000	-1.058750
23.363001	-15.128000	1004.426025	0.857500	-0.153125	-0.896875
19.153999	-14.884000	998.265015	0.901250	-0.205625	-0.901250
23.851000	-15.982000	1007.658997	0.966875	0.004375	-0.993125
21.837999	-13.603000	1000.583008	0.892500	-0.113750	-1.050000
27.023001	-13.054000	1004.975037	0.896875	-0.052500	-0.975625
24.400000	-19.703001	1001.986023	1.093750	-0.118125	-0.888125
26.718000	-16.409000	1001.132019	0.848750	-0.074375	-0.901250
28.670000	-17.568001	1003.205994	0.914375	-0.223125	-0.971250
23.912001	-21.106001	1006.439026	0.936250	-0.140000	-0.953750
27.877001	-17.629000	1004.548035	0.971250	-0.262500	-0.962500
22.448000	-15.738000	1000.400024	0.835625	-0.070000	-0.910000
20.374001	-15.616000	1001.619995	0.840000	-0.065625	-0.975625
24.461000	-9.943000	1001.010010	1.076250	-0.183750	-1.067500
18.605000	-19.580999	1005.707031	1.015000	-0.166250	-1.028125
24.948999	-14.335000	1002.351990	0.717500	-0.179375	-0.870625
23.424000	-18.422001	1001.132019	0.805000	-0.249375	-0.980000
30.073000	-13.359000	1008.025024	0.923125	-0.231875	-1.071875
24.948999	-16.958000	1002.291016	0.861875	-0.065625	-1.080625
26.474001	-17.446001	997.228027	0.800625	-0.065625	-0.945000
26.352001	-17.446001	1003.267029	1.001875	-0.091875	-0.936250
22.326000	-13.847000	1006.012024	0.984375	-0.170625	-0.848750
28.609001	-14.396000	1004.304016	0.988750	-0.083125	-0.888125
23.790001	-14.884000	1003.816040	0.590625	0.135625	-0.984375
24.034000	-19.886000	1004.548035	0.901250	0.000000	-1.067500
24.278000	-15.311000	1005.280029	0.787500	0.175000	-0.918750
22.082001	-9.699000	1004.304016	0.892500	-0.105000	-0.883750
20.740000	-7.442000	1011.319031	0.656250	-0.065625	-0.962500
27.755001	-16.775000	1003.632996	0.848750	0.113750	-0.984375
21.899000	-21.594000	999.546021	1.133125	-0.004375	-1.041250
27.999001	-18.117001	1004.731018	0.861875	-0.205625	-1.063125
22.326000	-15.738000	1002.962036	0.660625	-0.109375	-0.997500
24.521999	-17.812000	1000.888000	0.621250	0.061250	-1.063125
24.278000	-14.457000	1003.877014	0.800625	-0.026250	-0.949375
27.084000	-16.469999	1003.205994	0.927500	-0.236250	-0.966875
24.034000	-15.494000	1006.927002	0.918750	-0.336875	-1.010625
27.389000	-13.420000	1005.036011	0.980000	-0.175000	-1.080625
24.278000	-15.982000	1001.619995	0.835625	-0.148750	-1.050000
24.888000	-13.603000	1003.816040	0.765625	-0.074375	-0.993125
25.864000	-11.224000	1001.742004	0.901250	-0.017500	-0.997500
28.853001	-5.429000	999.546021	0.936250	-0.236250	-1.015000
30.378000	-10.126000	1009.244995	1.225000	-0.525000	-0.949375
23.363001	-8.296000	1003.999023	0.936250	-0.354375	-1.023750
30.073000	-15.799000	1006.134033	0.818125	-0.140000	-0.993125
25.986000	-21.410999	998.509033	1.106875	-0.341250	-0.945000
28.121000	-13.359000	1004.609009	1.050000	-0.223125	-0.896875
26.108000	-12.688000	1003.205994	0.721875	-0.048125	-0.988750
24.400000	-16.958000	1002.596008	0.450625	-0.030625	-1.163750
22.326000	-13.481000	999.424011	0.848750	-0.205625	-1.058750
20.496000	-12.444000	1004.487000	0.870625	-0.231875	-0.966875
20.130001	-19.947001	1001.132019	1.085000	-0.183750	-1.089375
25.559000	-19.398001	1005.829041	0.949375	-0.262500	-0.988750
24.521999	-12.505000	1011.075012	0.835625	-0.196
22.204000	-20.130001	1003.328003	0.739375	-0.070000	-0.945000
21.960001	-11.895000	1000.765991	0.800625	-0.153125	-1.028125
28.365000	-16.226000	1005.585022	0.826875	-0.030625	-0.993125
21.655001	-12.383000	1001.986023	0.721875	0.000000	-0.980000
21.716000	-13.298000	1004.182007	0.796250	-0.240625	-0.927500
25.802999	-16.714001	1002.718018	1.019375	-0.214375	-0.931875
27.694000	-21.472000	1001.986023	1.032500	-0.161875	-0.997500
26.474001	-18.239000	1002.596008	0.953750	-0.183750	-0.940625
22.814001	-18.788000	1003.937988	0.678125	-0.026250	-0.975625
27.389000	-12.871000	1001.742004	0.673750	0.083125	-0.988750
26.840000	-17.202000	1005.096985	0.800625	-0.061250	-0.984375
24.034000	-18.177999	1006.622009	0.918750	-0.109375	-0.905625
25.864000	-15.433001	1001.619995	0.813750	-0.122500	-1.006250
23.912001	-15.616000	1005.585022	0.748125	-0.100625	-0.923125
28.487000	-17.812000	1004.548035	0.975625	-0.148750	-1.001875
20.801001	-20.984001	1003.572021	0.988750	-0.135625	-1.015000
21.837999	-11.651000	1002.473999	0.796250	-0.201250	-1.006250
28.853001	-13.298000	1001.376038	0.822500	-0.179375	-1.093750
23.668001	-17.446001	1003.937988	0.971250	-0.175000	-1.098125
27.023001	-17.812000	1004.059998	1.233750	-0.153125	-0.896875
21.289000	-12.871000	1001.864014	1.325625	-0.175000	-0.870625
21.228001	-16.348000	1001.864014	1.050000	-0.280000	-0.905625
21.837999	-14.884000	1003.328003	0.848750	-0.052500	-1.019375
24.034000	-11.773000	1005.036011	0.866250	-0.004375	-0.931875
26.413000	-11.346000	1003.572021	0.791875	-0.004375	-0.997500
26.840000	-16.653000	1003.328003	0.761250	-0.153125	-0.958125
25.010000	-14.091001	1002.473999	0.892500	-0.240625	-1.006250
24.156000	-17.690001	1005.218994	0.936250	-0.118125	-1.080625
24.888000	-17.202000	1005.280029	0.936250	-0.140000	-1.036875
26.352001	-16.714001	1005.645996	0.896875	-0.140000	-1.036875
26.352001	-16.714001	1006.134033	0.962500	-0.179375	-0.870625
29.219000	-12.383000	1006.134033	0.857500	-0.223125	-0.910000
27.572001	-17.629000	1001.376038	0.805000	-0.131250	-0.993125
26.230000	-14.091001	1002.230042	0.931875	-0.153125	-1.076250
24.034000	-15.372000	999.911987	0.774375	0.008750	-0.936250
26.291000	-13.420000	1001.619995	0.910000	-0.214375	-0.888125
25.498001	-15.128000	1003.450012	0.765625	-0.052500	-0.975625
25.864000	-16.592001	1007.049011	0.586250	0.091875	-0.826875
25.010000	-15.616000	1002.596008	0.363125	0.035000	-1.010625
23.302000	-14.274000	1006.682983	0.726250	-0.210000	-0.901250
26.901001	-16.836000	1003.572021	1.010625	-0.227500	-0.945000
25.010000	-12.993000	1002.962036	0.853125	0.004375	-1.058750
25.742001	-15.982000	1002.230042	0.778750	-0.179375	-1.023750
24.644001	-14.274000	1005.950989	0.892500	-0.175000	-1.041250
24.644001	-17.690001	1006.744019	0.634375	-0.052500	-0.918750
22.082001	-19.153999	999.119019	0.682500	-0.245000	-1.067500
31.537001	-15.921000	1002.046997	0.153125	0.153125	-1.001875
26.474001	-12.993000	1003.450012	0.936250	-0.035000	-0.857500
25.864000	-15.494000	1005.768005	1.137500	-0.105000	-0.984375
23.180000	-14.518001	1005.158020	0.704375	-0.100625	-1.050000
16.042999	-16.958000	1004.059998	0.380625	0.061250	-0.857500
22.631001	-22.387001	1003.205994	0.398125	-0.201250	-0.848750
27.145000	-20.191000	1002.230042	0.573125	-0.100625	-0.927500
21.533001	-15.067000	1006.072998	1.662500	-0.577500	-0.936250
24.948999	-10.309000	1001.864014	1.785000	-0.621250	-0.953750
27.755001	-14.396000	1008.757019	0.809375	-0.118125	-1.023750
25.864000	-16.104000	1007.354004	-0.533750	0.608125	-0.936250
24.400000	-11.651000	1003.694031	0.271250	0.109375	-1.036875
22.814001	-18.239000	1004.304016	0.616875	-0.048125	-0.966875
27.145000	-15.433001	1005.768005	-0.433125	0.262500	-0.931875
18.239000	-21.167000	1006.134033	-4.038125	1.260000	-0.927500
21.045000	-21.594000	999.241028	-5.691875	1.907500	-0.975625
18.666000	-27.084000	992.165039	2.870000	-0.888125	-0.997500
15.799000	-20.130001	973.864990	5.285000	-5.223750	-4.453750
23.607000	-23.790001	1003.328003	5.285000	-5.223750	0.000000
20.618000	-30.073000	1002.718018	0.376250	-0.131250	-0.831250
17.934000	-27.877001	1001.010010	0.958125	-0.175000	-0.971250
18.788000	-20.557001	1001.376038	1.474375	-0.205625	-0.888125
21.228001	-26.779001	1002.718018	1.093750	-0.240625	-1.019375
21.228001	-26.718000	998.936035	1.246875	-0.179375	-0.949375
19.153999	-26.718000	1003.877014	1.203125	-0.157500	-0.962500
23.607000	-25.986000	1006.134033	1.076250	-0.258125	-0.984375
20.374001	-25.375999	1005.645996	0.844375	-0.109375	-0.910000
25.559000	-28.182001	1003.816040	0.599375	0.013125	-0.844375
22.691999	-29.768000	998.936035	0.612500	-0.166250	-0.896875
20.374001	-24.461000	1048.406982	6.496875	-2.003750	-0.988750
16.958000	-36.539001	976.304993	16.248751	-7.713125	-1.452500
29.158001	-31.903000	1000.583008	1.439375	-1.745625	-1.054375
27.572001	7.747000	1071.098999	8.588125	-4.208750	-1.146250
25.742001	-24.400000	1006.744019	3.731875	-1.885625	-0.936250
24.034000	-5.307000	1002.840027	-4.108125	2.515625	-0.752500
16.896999	-26.169001	960.932983	4.086250	-2.611875	-0.975625
20.923000	-21.533001	1009.671997	4.221875	-1.330000	-1.080625
20.862000	-19.215000	1007.720032	0.161875	0.560000	-0.958125
27.267000	-16.165001	1002.962036	-1.181250	0.997500	-0.940625
19.337000	-12.993000	1000.643982	-0.586250	0.752500	-0.888125
22.631001	-16.836000	1000.643982	0.459375	-0.026250	-1.006250
29.097000	-15.738000	1003.267029	0.459375	-0.450625	-0.883750
22.631001	-22.387001	1003.328003	1.277500	-0.450625	-0.883750
22.631001	-22.387001	1003.328003	1.430625	-0.341250	-0.984375
26.779001	-15.677000	1001.619995	1.273125	-0.280000	-1.085000
25.986000	-14.274000	1003.083984	0.940625	-0.122500	-1.001875
23.912001	-12.078000	1003.205994	0.713125	-0.087500	-0.997500
23.912001	-14.762000	1002.962036	0.826875	-0.100625	-1.032500
21.472000	-14.518001	1005.158020	0.783125	-0.048125	-1.032500
24.948999	-19.032000	1003.694031	0.875000	-0.026250	-1.093750
26.230000	-12.017000	1001.376038	-0.301875	0.595000	-0.743750
-43.005001	-28.670000	991.799011	-7.980000	2.756250	-2.502500
-23.241001	-11.224000	984.356995	1.443750	2.406250	-7.918750
38.307999	-52.887001	974.596985	2.791250	1.308125	4.095000
96.380005	20.984001	1185.901001	4.545625	-5.223750	-1.636250
28.975000	-16.775000	1003.023010	-0.056875	-0.883750	-1.881250
21.289000	-16.469999	1001.010010	-0.310625	1.067500	-1.229375
13.847000	-15.250000	1003.877014	-0.879375	1.736875	-1.045625
15.128000	-20.801001	1002.351990	1.907500	-1.299375	-1.505000
18.483000	-22.204000	1004.791992	2.240000	-1.115625	-2.209375
19.153999	-15.921000	1003.450012	2.410625	-1.023750	-1.513750
-2.013000	-8.845000	1001.254028	1.356250	-0.455000	-1.990625
27.694000	-18.483000	1005.341003	0.695625	-0.035000	-1.277500
22.570000	-15.921000	1005.523987	0.573125	-0.074375	-0.914375
22.936001	-16.958000	1003.328003	1.185625	-0.271250	-1.010625
22.570000	-14.457000	1003.937988	1.421875	-0.568750	-1.115625
21.106001	-9.821000	1002.230042	2.314375	-1.207500	-1.461250
79.910004	-50.569000	1002.473999	0.398125	-0.157500	-1.207500
12.139000	-13.237000	1003.694031	0.625625	-0.070000	-1.041250
35.196999	-19.215000	1007.781006	1.850625	-0.612500	-1.133125
1.586000	-15.921000	999.241028	1.076250	-0.586250	-1.316875
19.032000	-14.274000	1003.145020	1.465625	-0.494375	-1.426250
70.4911 [INFO] [main.cpp:54] -49.166000	3.660000	819.169006	-8.658125	4.086250	18.423124
90.889999	1.464000	965.203003	-0.481250	-0.791875	17.933125
187.574997	86.193001	973.010986	3.985625	-6.440000	-7.122500
126.391998	3.843000	795.501038	19.569374	-16.349375	-22.303749
-22.021000	47.702000	922.991028	11.064375	-6.540625	-6.842500
-62.890999	-19.032000	1019.859009	-8.513750	4.873750	-1.855000
-126.636002	-42.272999	756.522034	-14.039375	10.871875	15.168125
197.152008	-11.102000	1067.865967	-6.851250	4.742500	35.284374
43.310001	-19.215000	1003.937988	2.187500	-0.463750	7.651875
381.127991	127.794998	928.725037	0.227500	-20.833750	-30.086876
-344.894012	-227.895996	1342.061035	27.146875	-15.216250	-44.406250
-116.510002	-16.348000	984.174011	0.087500	3.053750	-13.938750
-201.971008	-126.391998	874.862000	-15.448125	13.304375	16.108749
18.849001	-81.374001	878.338989	-11.151875	8.763125	50.658127
188.246002	35.196999	929.700989	-6.488125	3.036250	31.141251
271.023010	34.647999	1020.408020	13.492500	-7.043750	-6.855625
114.314003	-21.655001	1323.883057	16.528749	-3.570000	-51.283749
-554.734009	-207.888000	868.822998	0.236250	-1.999375	-29.596874
-12.444000	-13.603000	948.794006	-6.195000	2.804375	-5.276250
-235.764999	63.440002	910.791016	-11.261250	9.852500	27.754999
304.634003	-65.636002	1363.776978	-11.921875	7.144375	61.731251
196.542007	9.516000	968.863037	-1.758750	-0.853125	33.818748
174.033005	-5.124000	1050.968994	8.898750	-3.972500	-13.720000
120.597000	73.809998	1007.536987	22.680000	-12.324375	-68.648125
-277.733002	-116.753998	884.377991	12.831875	-6.816250	-71.675629
25.559000	-7.198000	1021.018005	-1.194375	0.896875	-16.288124
-274.927002	-67.587997	1076.954956	-8.561875	5.775000	25.519375
173.362000	-95.098999	1253.367065	-8.509375	10.097500	83.365623
327.082001	27.816000	1085.190063	-13.540625	5.678750	44.253124
277.062012	-69.295998	1024.312012	6.671875	-2.183125	-9.773750
182.145996	33.611000	908.838989	29.553125	-9.283750	-69.300003
-435.906006	-119.133003	868.213013	9.073750	-1.911875	-61.770626
17.385000	-7.625000	996.434998	-3.298750	2.336250	-13.107500
-157.380005	-25.375999	1086.531982	-10.399375	7.135625	29.049999
183.000000	30.439001	839.848022	-7.853125	4.751250	71.789375
72.468002	19.337000	952.637024	1.106875	-2.638125	20.632500
330.864014	16.714001	866.992981	1.106875	-2.638125	-28.420000
330.864014	16.714001	1152.717041	16.629375	-13.103125	-28.420000
-416.141998	-35.563000	1152.717041	12.398750	-1.815625	-54.363750
-5.063000	-7.808000	980.635986	-8.185625	6.776875	-15.898750
-253.272003	-90.036003	955.320984	-8.942500	10.548125	33.617500
335.011993	25.071001	947.025024	-8.128750	6.151250	34.243126
446.946991	87.473999	1015.833008	25.545626	-10.036250	-12.145000
-302.498993	-256.932007	939.400024	-1.833125	1.273125	-54.678749
-343.979004	-65.209000	996.312988	-21.258125	12.000625	-28.796249
192.760010	94.733002	955.931030	-22.898750	6.098750	4.221875
24.034000	-28.670000	913.963013	-4.602500	-4.156250	26.376875
98.087997	-14.396000	1081.774048	10.749375	-2.222500	2.835000
27.755001	-20.801001	1000.156006	23.183125	-10.106250	-2.655625
19.703001	-34.526001	1019.492981	0.450625	-1.911875	-0.809375
22.204000	21.289000	988.809998	14.188125	-9.266250	-1.089375
9.943000	-20.557001	998.997009	2.318750	-1.623125	-0.809375
35.990002	22.448000	1007.781006	-0.043750	-0.087500	-0.936250
20.374001	-23.912001	1005.890015	7.280000	-1.977500	-0.971250
20.618000	-25.010000	1006.377991	1.723750	-0.660625	-1.146250
24.461000	-18.239000	1012.173035	-3.053750	1.964375	-0.971250
24.521999	-15.189000	1003.389038	-1.955625	1.649375	-0.835625
27.389000	-12.139000	992.165039	0.490000	-0.008750	-0.857500
24.521999	-14.274000	1001.315002	2.104375	-0.756875	-1.124375
17.995001	-20.923000	1011.257996	2.038750	-0.739375	-1.133125
22.753000	-14.213000	1007.842041	1.509375	-0.376250	-0.988750
16.531000	-10.675000	1010.098999	1.190000	0.026250	-0.975625
25.071001	-16.775000	1005.890015	0.910000	0.030625	-0.988750
21.472000	-18.177999	1003.816040	0.774375	-0.087500	-1.115625
22.448000	-13.603000	1005.523987	0.787500	-0.074375	-1.120000
23.790001	-16.714001	1002.230042	0.879375	-0.341250	-1.050000
23.912001	-11.163000	1005.218994	0.949375	-0.398125	-0.936250
22.082001	-13.420000	1002.108032	0.774375	-0.275625	-0.945000
21.228001	-17.323999	1002.596008	0.708750	-0.201250	-0.962500
24.948999	-14.762000	1003.205994	0.748125	-0.065625	-0.923125
20.862000	-12.688000	1005.707031	0.953750	-0.096250	-0.914375
22.691999	-16.226000	1006.622009	1.023750	-0.231875	-0.984375
26.535000	-12.261000	1003.205994	0.861875	-0.166250	-0.800625
26.230000	-16.226000	1004.426025	0.831250	-0.170625	-0.980000
25.010000	-15.250000	1006.377991	0.739375	-0.336875	-0.958125
22.082001	-15.738000	1002.108032	0.997500	-0.205625	-0.997500
27.145000	-16.226000	1004.182007	0.971250	-0.179375	-1.015000
22.326000	-16.226000	1000.888000	0.866250	-0.205625	-0.936250
27.755001	-15.372000	1002.718018	0.818125	-0.148750	-1.054375
26.108000	-16.958000	1000.156006	0.748125	-0.183750	-1.010625
25.864000	-13.725000	1004.364990	0.791875	-0.205625	-0.945000
23.790001	-17.202000	1001.742004	0.774375	-0.100625	-1.015000
23.668001	-15.982000	1004.853027	0.809375	-0.056875	-1.019375
19.764000	-16.714001	999.241028	0.774375	-0.065625	-0.975625
24.461000	-15.982000	1000.522034	0.870625	-0.065625	-0.931875
22.326000	-20.496000	1002.840027	0.726250	-0.192500	-0.962500
27.999001	-16.531000	1000.888000	0.857500	-0.052500	-0.901250
18.849001	-15.860001	1004.731018	0.905625	-0.175000	-0.918750
26.657000	-12.627000	1008.757019	0.958125	-0.148750	-0.853125
25.986000	-14.396000	1005.036011	0.752500	-0.070000	-0.997500
20.374001	-19.825001	1003.816040	0.826875	-0.126875	-1.015000
17.080000	-17.446001	1004.426025	0.888125	-0.205625	-1.032500
25.802999	-7.686000	992.286987	0.844375	-0.153125	-0.752500
26.108000	-12.627000	1002.840027	0.949375	-0.061250	-0.848750
25.498001	-13.176001	1001.010010	0.682500	-0.048125	-0.953750
24.888000	-15.494000	1004.975037	0.822500	-0.109375	-1.010625
27.632999	-16.104000	1005.158020	0.927500	-0.170625	-0.953750
22.143000	-18.300001	1005.036011	0.966875	-0.188125	-0.918750
20.374001	-17.934000	1001.742004	0.761250	-0.043750	-0.958125
21.594000	-12.627000	1004.487000	0.595000	-0.087500	-1.023750
21.106001	-14.396000	1002.351990	0.695625	-0.056875	-0.923125
21.960001	-15.738000	1003.205994	0.923125	-0.144375	-0.953750
21.837999	-18.300001	1002.840027	0.875000	-0.288750	-1.111250
28.609001	-16.226000	1004.426025	1.015000	-0.245000	-1.032500
23.424000	-10.187000	1004.914001	0.761250	-0.140000	-0.853125
18.544001	-10.004000	1001.864014	0.857500	-0.249375	-0.901250
31.110001	-14.274000	1004.242981	0.883750	-0.157500	-1.023750
22.509001	-14.152000	1002.473999	0.914375	-0.196875	-1.071875
25.010000	-16.836000	999.546021	1.260000	-0.266875	-0.945000
23.302000	-11.041000	1003.755005	1.137500	-0.166250	-0.984375
23.180000	-15.250000	1002.840027	0.861875	0.000000	-1.050000
23.790001	-12.383000	1006.072998	0.752500	-0.056875	-1.080625
25.864000	-15.860001	1003.694031	1.015000	-0.140000	-1.006250
25.986000	-13.908000	1006.682983	0.848750	-0.078750	-0.984375
25.254000	-15.982000	1001.986023	0.555625	-0.078750	-1.015000
26.596001	-13.359000	1000.156006	0.555625	-0.183750	-0.936250
21.594000	-14.396000	1001.132019	1.106875	-0.183750	-0.936250
21.594000	-14.396000	1001.132019	0.923125	-0.245000	-0.993125
27.145000	-17.202000	1006.072998	0.949375	-0.166250	-1.045625
24.034000	-17.568001	1001.132019	0.857500	-0.161875	-1.006250
21.350000	-13.359000	1001.742004	0.914375	-0.135625	-0.931875
23.180000	-17.812000	1004.242981	1.023750	-0.118125	-0.931875
24.400000	-18.300001	1003.083984	1.071875	-0.315000	-0.910000
21.716000	-16.469999	1001.010010	0.861875	-0.113750	-0.966875
19.276001	-14.884000	999.911987	1.106875	-0.170625	-1.080625
24.948999	-12.017000	1004.242981	0.962500	-0.161875	-0.949375
24.400000	-20.434999	1008.268982	0.800625	-0.175000	-0.870625
22.936001	-17.995001	1001.437012	0.743750	-0.017500	-0.883750
24.888000	-13.847000	1004.853027	0.866250	-0.157500	-0.896875
22.814001	-16.226000	1001.376038	0.971250	-0.096250	-0.910000
23.668001	-13.908000	1005.341003	1.120000	-0.153125	-0.914375
25.620001	-18.910000	1001.742004	0.910000	-0.135625	-1.010625
20.984001	-17.446001	1002.596008	0.861875	-0.245000	-1.050000
24.095001	-17.446001	1003.694031	0.831250	-0.148750	-1.010625
24.156000	-15.982000	1006.927002	0.866250	-0.288750	-1.006250
26.413000	-19.153999	1005.523987	0.783125	-0.306250	-0.962500
26.474001	-14.823000	1003.572021	0.748125	-0.240625	-1.054375
23.546000	-18.300001	1002.962036	0.905625	-0.323750	-1.023750
23.546000	-13.969000	1005.218994	1.041250	-0.332500	-1.111250
22.448000	-18.300001	1004.791992	0.840000	-0.301875	-1.041250
23.058001	-15.860001	1007.415039	0.866250	-0.105000	-1.001875
