A_X[mg]	A_Y[mg]	A_Z[mg]	G_X[dps]	G_Y[dps]	G_Z[dps]	
31.842001	-15.494000	1004.914001	0.905625	-0.293125	-0.953750
32.939999	-11.773000	1004.059998	0.818125	-0.227500	-0.936250
30.866001	-5.307000	1000.400024	0.669375	-0.166250	-0.966875
37.271000	-15.677000	1009.733032	0.551250	-0.262500	-0.962500
41.053001	-11.895000	1003.510986	0.752500	-0.179375	-1.023750
34.587002	-17.873001	1001.742004	0.568750	-0.030625	-1.023750
35.746002	-14.701000	1005.096985	0.560000	-0.188125	-0.936250
35.868000	-16.836000	1001.254028	0.708750	0.021875	-1.023750
30.561001	-12.627000	1008.025024	0.730625	-0.240625	-0.848750
32.208000	-16.592001	1006.134033	0.831250	-0.157500	-0.892500
35.196999	-14.091001	999.363037	0.953750	-0.179375	-0.923125
32.574001	-15.738000	1000.400024	0.616875	-0.039375	-0.875000
30.622000	-15.006001	1003.877014	0.616875	-0.035000	-0.910000
31.720001	-14.884000	1004.914001	0.988750	-0.035000	-0.910000
31.720001	-14.884000	1002.596008	1.067500	-0.026250	-0.927500
31.354000	-12.810000	1002.596008	0.857500	-0.310625	-0.936250
39.345001	-14.030000	1001.497986	0.888125	-0.301875	-0.875000
31.781000	-15.006001	1003.328003	1.067500	-0.166250	-0.918750
37.271000	-11.651000	999.911987	0.800625	-0.166250	-0.896875
40.809002	-9.760000	1003.389038	0.949375	-0.210000	-0.962500
38.917999	-14.396000	1001.986023	0.936250	-0.227500	-1.019375
34.647999	-10.309000	1001.132019	1.010625	-0.271250	-1.067500
27.511000	-15.677000	1005.829041	0.691250	-0.056875	-0.971250
31.659000	-9.089000	999.241028	0.901250	-0.105000	-1.036875
29.158001	-10.614000	1001.254028	0.896875	-0.065625	-0.953750
31.232000	-11.590000	1001.132019	0.778750	-0.245000	-0.910000
30.500000	-11.712000	1004.853027	0.813750	-0.118125	-0.883750
35.929001	-13.664001	1007.109985	0.866250	-0.083125	-0.888125
37.332001	-9.943000	1003.572021	0.840000	-0.262500	-0.927500
31.415001	-11.346000	1004.548035	0.993125	-0.245000	-1.032500
36.904999	-15.738000	1004.548035	0.958125	-0.122500	-0.993125
34.526001	-15.250000	1005.523987	0.896875	-0.052500	-0.901250
31.598000	-15.250000	999.851013	1.058750	-0.122500	-0.931875
34.221001	-15.494000	1003.999023	0.840000	-0.192500	-0.988750
32.085999	-22.264999	1006.561035	0.783125	-0.109375	-0.953750
35.806999	-13.481000	1005.645996	1.010625	-0.100625	-1.010625
30.805000	-5.795000	1003.450012	0.866250	-0.061250	-1.001875
31.354000	-17.019001	1003.937988	1.023750	-0.227500	-0.923125
34.587002	-7.747000	1003.083984	0.940625	-0.293125	-0.905625
35.624001	-14.823000	998.936035	1.185625	-0.109375	-0.975625
37.088001	-13.786000	1000.888000	0.988750	-0.210000	-0.966875
33.306000	-15.128000	1002.840027	0.949375	-0.258125	-1.023750
35.501999	-12.932000	1005.829041	0.730625	-0.179375	-0.984375
33.793999	-5.795000	1003.694031	0.901250	-0.323750	-0.984375
34.526001	-13.115000	1005.158020	0.752500	-0.161875	-0.949375
31.110001	-13.542000	1000.888000	0.822500	-0.166250	-1.028125
34.709000	-19.825001	1003.632996	0.787500	0.118125	-0.993125
34.403999	-14.213000	998.265015	0.901250	-0.056875	-0.975625
38.125000	-18.056000	1000.583008	1.089375	0.013125	-1.045625
30.439001	-11.895000	1001.376038	1.080625	-0.148750	-0.997500
31.354000	-8.235000	1000.278015	0.936250	-0.192500	-0.936250
31.720001	-17.995001	1000.765991	0.752500	-0.100625	-0.980000
36.417000	-9.211000	1004.609009	0.783125	-0.083125	-1.032500
31.598000	-11.224000	1005.158020	0.796250	-0.122500	-1.010625
34.831001	-12.078000	1005.036011	0.870625	-0.083125	-0.883750
34.038002	-11.834001	997.777039	0.704375	-0.258125	-1.058750
33.549999	-13.908000	1003.877014	0.783125	-0.131250	-1.137500
34.526001	-18.666000	1006.439026	1.155000	-0.126875	-1.063125
34.647999	-10.431000	1004.059998	1.006250	-0.175000	-1.023750
31.842001	-24.644001	1006.195007	0.988750	-0.201250	-0.936250
30.378000	-15.921000	1005.523987	1.163750	-0.236250	-0.966875
36.417000	-16.469999	1001.619995	0.831250	-0.249375	-0.971250
36.355999	-10.919000	1002.596008	0.603750	-0.118125	-0.980000
31.964001	-11.468000	1000.522034	0.805000	-0.065625	-0.936250
30.256001	-9.638000	1000.888000	1.001875	-0.153125	-0.931875
30.866001	-9.394000	1003.632996	0.778750	-0.301875	-0.905625
35.563000	-13.420000	1006.561035	0.866250	-0.280000	-0.975625
32.330002	-10.309000	1006.255981	0.752500	-0.131250	-0.962500
31.842001	-14.396000	1003.328003	0.651875	-0.214375	-0.883750
34.098999	-13.786000	1004.548035	0.713125	-0.210000	-0.945000
30.743999	-9.699000	1006.500000	0.905625	-0.214375	-1.063125
30.743999	-14.701000	1005.890015	0.962500	-0.144375	-0.936250
32.695999	-18.788000	1005.280029	0.848750	-0.126875	-1.023750
33.428001	-12.627000	1003.572021	1.264375	-0.161875	-0.966875
32.695999	-15.738000	1001.254028	1.120000	-0.240625	-0.927500
31.598000	-10.431000	1001.132019	0.848750	-0.083125	-0.966875
35.563000	-13.054000	1003.267029	0.857500	-0.205625	-1.067500
32.818001	-12.932000	1003.816040	0.861875	-0.175000	-0.949375
32.208000	-11.102000	1003.450012	0.665000	-0.144375	-0.993125
36.660999	-10.492001	1001.619995	1.015000	-0.122500	-0.927500
36.600002	-17.019001	1007.658997	0.730625	-0.105000	-0.953750
35.746002	-12.627000	1002.169006	0.595000	-0.179375	-1.001875
37.453999	-12.322001	1002.718018	0.735000	-0.126875	-1.032500
35.624001	-12.810000	1005.036011	0.721875	-0.188125	-1.001875
34.647999	-29.524000	1004.669983	0.682500	-0.196875	-0.975625
36.722000	-10.309000	1001.376038	0.813750	-0.017500	-0.949375
28.975000	-13.298000	1003.450012	0.826875	-0.227500	-0.861875
33.367001	-14.518001	1001.742004	1.023750	-0.275625	-0.892500
36.173000	-12.200000	1004.364990	0.735000	-0.013125	-0.988750
33.549999	-17.507000	1000.033997	0.783125	-0.061250	-1.023750
31.720001	-13.725000	1003.632996	0.826875	-0.109375	-0.949375
31.476000	-9.699000	1003.816040	0.883750	-0.122500	-0.923125
36.904999	-21.410999	1003.572021	0.756875	-0.070000	-0.940625
31.903000	-9.394000	1000.156006	0.875000	0.000000	-0.988750
27.694000	-9.272000	1000.156006	1.019375	0.026250	-0.953750
30.195000	-14.152000	1004.121033	0.835625	0.008750	-0.918750
33.000999	-11.529000	1001.742004	0.927500	-0.175000	-0.949375
36.660999	-10.980000	1001.254028	0.927500	-0.148750	-0.966875
33.306000	-18.726999	1003.999023	0.949375	-0.091875	-0.936250
37.149002	-16.287001	1000.643982	0.643125	-0.070000	-1.054375
32.085999	-14.274000	1003.510986	0.612500	-0.070000	-1.098125
33.306000	-12.444000	1002.962036	0.853125	-0.109375	-1.080625
33.428001	-15.250000	999.057983	0.905625	-0.201250	-0.905625
31.476000	-14.030000	1001.437012	0.958125	-0.175000	-0.883750
31.232000	-7.381000	1001.742004	0.892500	0.043750	-0.945000
32.939999	-8.296000	1002.840027	1.080625	-0.105000	-0.988750
29.524000	-14.457000	1008.879028	1.106875	-0.166250	-1.067500
33.733002	-17.323999	1009.794006	0.818125	-0.126875	-0.984375
35.257999	-16.469999	1003.389038	0.717500	-0.113750	-0.857500
38.612999	-16.592001	1003.083984	0.914375	-0.153125	-0.958125
32.146999	-15.616000	1002.108032	0.958125	-0.105000	-0.866250
34.403999	-20.740000	1006.072998	0.875000	-0.179375	-0.953750
31.842001	-15.799000	1004.304016	0.796250	-0.087500	-0.923125
30.378000	-13.664001	1003.205994	0.975625	-0.135625	-0.993125
31.476000	-19.398001	1005.463013	1.089375	-0.135625	-0.905625
32.818001	-13.603000	1002.230042	1.058750	-0.122500	-0.984375
33.672001	-14.518001	1004.487000	1.150625	-0.065625	-0.927500
34.647999	-14.152000	1009.976990	1.150625	-0.065625	-0.927500
34.647999	-14.152000	1004.242981	0.748125	-0.070000	-0.975625
33.184002	-16.348000	1004.242981	0.682500	-0.100625	-0.971250
32.695999	-11.041000	1003.328003	0.752500	-0.240625	-1.001875
31.842001	-11.224000	1001.254028	0.866250	-0.183750	-0.975625
31.720001	-14.518001	1004.487000	0.748125	-0.161875	-0.848750
41.723999	-12.200000	1003.328003	0.800625	-0.192500	-0.949375
37.088001	-11.590000	1001.254028	0.748125	-0.070000	-1.067500
32.085999	-14.396000	1002.596008	0.861875	-0.118125	-1.168125
35.685001	-10.065001	1006.927002	0.918750	-0.192500	-1.093750
33.184002	-14.640000	1004.304016	0.892500	-0.253750	-1.032500
34.160000	-9.333000	1001.254028	0.525000	-0.196875	-0.892500
34.038002	-15.677000	1000.522034	0.643125	-0.144375	-0.870625
33.549999	-16.592001	1003.510986	0.791875	-0.161875	-1.032500
34.038002	-13.481000	1005.768005	0.866250	-0.083125	-1.050000
31.964001	-13.542000	1005.158020	0.813750	-0.070000	-0.910000
33.306000	-17.446001	1004.548035	1.111250	-0.266875	-0.945000
28.426001	-13.115000	1004.304016	0.883750	-0.166250	-0.923125
36.173000	-7.747000	1004.059998	0.800625	-0.091875	-0.892500
38.674000	-12.444000	997.777039	0.805000	-0.157500	-0.945000
32.635002	-11.834001	1001.681030	0.805000	-0.306250	-0.980000
36.539001	-17.507000	1003.328003	0.700000	-0.227500	-1.015000
33.428001	-13.969000	1004.914001	0.866250	-0.188125	-1.019375
35.257999	-9.821000	1005.158020	0.787500	-0.122500	-0.997500
34.526001	-14.884000	1003.328003	0.966875	-0.030625	-0.984375
35.014000	-17.568001	1007.903015	0.975625	-0.083125	-0.901250
33.306000	-13.969000	1006.012024	0.984375	-0.218750	-1.006250
37.027000	-14.762000	1006.622009	0.752500	-0.105000	-1.041250
35.624001	-14.884000	1006.744019	0.608125	-0.126875	-1.032500
33.672001	-13.420000	1004.304016	0.472500	-0.144375	-1.054375
33.428001	-10.736000	1010.587036	0.341250	-0.166250	-0.958125
43.554001	-15.250000	1006.988037	0.555625	-0.310625	-0.945000
30.743999	-14.762000	1002.596008	0.678125	-0.157500	-0.962500
35.075001	-14.884000	1005.218994	0.809375	-0.175000	-1.050000
30.256001	-14.884000	1007.963989	0.625625	-0.013125	-1.019375
32.452000	-15.738000	1005.402039	0.717500	-0.135625	-0.905625
35.806999	-16.348000	1001.132019	0.971250	-0.131250	-0.888125
34.526001	-17.812000	1000.400024	0.875000	-0.030625	-0.958125
25.193001	-10.797000	1003.632996	0.962500	-0.096250	-0.971250
37.332001	-15.982000	1001.986023	0.870625	-0.271250	-0.966875
39.161999	-10.675000	1002.596008	0.927500	-0.192500	-0.940625
33.855000	-10.492001	1001.986023	0.581875	-0.017500	-0.949375
34.160000	-11.956000	1001.619995	1.019375	0.008750	-1.010625
30.500000	-10.736000	1007.903015	0.910000	-0.113750	-1.058750
31.354000	-15.982000	1002.596008	0.997500	-0.188125	-0.988750
32.452000	-15.006001	1005.463013	1.141875	-0.245000	-0.949375
36.173000	-11.407001	999.241028	0.861875	-0.126875	-0.988750
36.966000	-10.004000	999.546021	0.796250	-0.201250	-1.076250
36.844002	-13.542000	998.936035	0.695625	-0.100625	-1.015000
35.990002	-15.494000	1007.903015	0.756875	-0.118125	-0.940625
31.964001	-13.176001	1006.012024	1.063125	-0.310625	-0.914375
26.047001	-18.483000	1000.643982	0.980000	-0.205625	-0.953750
37.576000	-15.067000	1001.254028	0.975625	-0.096250	-0.940625
34.526001	-13.786000	1001.619995	1.137500	-0.074375	-0.949375
29.768000	-15.128000	1003.937988	1.146250	-0.183750	-0.945000
35.929001	-18.544001	1004.669983	0.927500	-0.170625	-0.914375
41.053001	-8.418000	1004.182007	0.923125	-0.170625	-1.001875
31.659000	-12.322001	1006.927002	0.980000	0.043750	-0.997500
31.964001	-9.577000	1006.134033	0.905625	-0.179375	-0.997500
33.306000	-15.433001	1004.791992	0.988750	-0.240625	-0.971250
31.232000	-13.786000	1002.351990	0.800625	-0.179375	-0.962500
35.319000	-15.006001	1002.108032	0.809375	-0.201250	-1.001875
31.842001	-12.139000	1001.132019	1.019375	-0.166250	-1.006250
34.465000	-9.699000	1004.609009	0.695625	-0.153125	-1.032500
29.768000	-13.786000	1001.742004	0.630000	-0.131250	-0.927500
33.367001	-10.187000	1005.463013	1.041250	-0.039375	-0.949375
31.964001	-12.688000	999.851013	0.800625	0.000000	-0.962500
38.003002	-11.956000	998.570007	0.879375	-0.096250	-0.936250
38.552002	-13.786000	1003.023010	0.756875	-0.157500	-0.857500
33.428001	-13.542000	997.471985	0.787500	-0.170625	-1.023750
33.428001	-14.274000	1000.278015	0.840000	-0.065625	-1.050000
36.539001	-12.444000	1005.585022	0.962500	-0.218750	-0.927500
37.332001	-12.810000	1003.694031	1.242500	-0.201250	-1.010625
31.659000	-10.675000	1002.840027	0.945000	-0.070000	-0.958125
33.855000	-14.274000	1002.108032	0.818125	-0.122500	-0.949375
34.526001	-10.919000	1001.254028	0.997500	-0.315000	-0.879375
37.393002	-11.102000	1001.864014	1.207500	-0.319375	-0.971250
31.781000	-13.298000	1002.473999	1.106875	-0.144375	-1.023750
36.050999	-10.431000	1000.400024	1.128750	-0.065625	-0.953750
31.842001	-13.176001	10
471.347015	-15.372000	1016.626038	-1.946875	1.824375	52.307499
327.325989	-14.152000	1047.369995	11.147500	-9.616250	-0.393750
-19.215000	-41.297001	307.623016	25.125626	-15.080625	-73.088753
-587.979004	-129.625000	970.143982	16.244375	-7.411250	-47.105625
-366.061005	-27.511000	1044.076050	-11.926250	17.237499	30.296875
13.115000	2.440000	1140.883057	-24.154375	5.810000	88.445000
533.932983	-70.698997	1141.432007	-24.661875	7.678125	45.009998
492.575012	-34.952999	971.851990	29.793751	-12.950000	0.516250
-322.019012	-143.106003	572.606995	27.741875	-8.920625	-69.951874
-339.037994	-101.931000	818.254028	11.151875	-2.756250	-52.679375
-193.431000	-75.639999	1039.623047	-7.748125	8.246875	5.792500
-208.010010	-36.050999	845.277039	-12.827500	3.972500	59.215626
369.110992	0.183000	925.553040	-8.470000	2.996875	56.319374
543.449036	80.031998	1002.718018	15.929375	-6.212500	0.363125
-343.795990	-201.910004	468.419006	29.631874	-17.171875	-55.492500
-427.304993	126.696999	857.903992	10.596250	-3.714375	-25.059999
-115.534004	-32.330002	1056.276001	-6.378750	6.339375	12.709375
239.363998	-73.139000	1129.963989	0.507500	-0.848750	27.081249
18.422001	7.015000	912.926025	10.233125	-8.194375	5.534375
8.479000	-31.171000	1000.400024	-4.707500	2.051875	-18.628750
22.326000	-2.562000	1153.631958	17.850000	-6.531875	-13.553750
32.939999	-28.609001	1027.972046	3.692500	-1.246875	-3.040625
27.145000	-2.196000	999.851013	-6.798750	3.823750	-0.638750
22.814001	-19.764000	970.388000	4.641875	-2.485000	-1.172500
22.814001	-18.300001	1007.293030	7.525000	-4.099375	-1.054375
20.130001	-18.300001	1007.598022	2.983750	-1.277500	-1.063125
20.984001	-20.496000	1005.890015	-0.551250	0.857500	-1.001875
25.437000	-13.481000	1002.840027	-1.260000	1.146250	-0.870625
28.487000	-13.054000	1000.033997	-0.043750	0.345625	-0.896875
25.498001	-19.093000	1003.510986	1.400000	-0.363125	-0.984375
28.609001	-22.326000	1003.083984	1.443750	-0.507500	-1.111250
18.605000	-17.629000	999.911987	1.325625	-0.420000	-1.019375
24.948999	-17.446001	1002.108032	0.835625	-0.144375	-0.949375
22.326000	-17.080000	1005.218994	0.831250	-0.126875	-0.892500
31.049000	-15.860001	1003.816040	0.813750	-0.205625	-1.063125
25.437000	-4.148000	997.411011	0.761250	-0.210000	-0.984375
21.960001	-10.919000	1005.707031	0.883750	-0.354375	-0.971250
21.472000	-18.605000	1003.816040	0.870625	-0.218750	-1.001875
22.326000	-15.433001	999.911987	0.813750	-0.297500	-1.036875
25.010000	-14.518001	1005.096985	0.743750	-0.196875	-1.102500
23.912001	-17.690001	1002.840027	0.791875	-0.175000	-0.931875
22.204000	-16.104000	1000.033997	0.708750	-0.266875	-0.971250
25.193001	-14.030000	999.911987	0.826875	-0.105000	-1.089375
24.766001	-13.664001	1004.853027	0.691250	-0.201250	-0.958125
23.790001	-16.958000	1004.914001	0.945000	-0.210000	-0.984375
23.424000	-13.725000	1003.694031	1.076250	-0.210000	-0.958125
22.936001	-11.956000	1001.376038	0.949375	-0.105000	-1.058750
29.097000	-18.726999	1004.975037	0.940625	-0.214375	-1.001875
19.093000	-15.189000	997.289001	1.067500	-0.258125	-0.958125
31.476000	-17.934000	1006.195007	0.971250	-0.192500	-1.028125
23.118999	-15.555000	1002.351990	1.015000	-0.188125	-0.997500
18.666000	-17.690001	998.570007	1.102500	-0.266875	-0.997500
23.607000	-13.847000	1006.682983	1.106875	-0.284375	-0.997500
22.570000	-13.542000	1003.937988	0.914375	-0.118125	-0.914375
25.132000	-16.226000	1000.765991	0.914375	-0.118125	-0.971250
25.132000	-13.603000	1003.510986	0.936250	-0.210000	-0.971250
21.960001	-13.603000	1003.510986	0.813750	-0.061250	-1.036875
21.228001	-15.250000	1000.888000	0.866250	-0.122500	-0.962500
20.984001	-13.420000	997.716003	0.949375	-0.201250	-0.936250
24.461000	-13.664001	1003.023010	0.962500	-0.052500	-0.984375
26.352001	-16.714001	1004.914001	0.896875	-0.113750	-1.080625
25.620001	-17.690001	1003.328003	0.778750	-0.113750	-1.071875
21.594000	-18.666000	1003.572021	0.805000	-0.179375	-1.036875
24.827000	-15.311000	1001.742004	0.791875	-0.310625	-1.106875
22.691999	-14.518001	1008.390991	0.818125	-0.258125	-1.036875
20.740000	-12.078000	1005.036011	0.595000	-0.030625	-1.001875
25.437000	-13.298000	1003.083984	0.796250	0.008750	-0.918750
24.156000	-17.446001	1002.230042	1.080625	-0.227500	-0.870625
24.156000	-13.725000	1006.682983	0.949375	-0.315000	-0.910000
24.644001	-14.762000	1002.473999	0.879375	-0.389375	-0.879375
32.269001	-14.152000	997.166992	0.761250	-0.494375	-0.966875
19.580999	-15.860001	1000.949036	0.927500	-0.131250	-1.015000
20.984001	-11.163000	1004.975037	0.875000	-0.017500	-1.050000
24.339001	-13.786000	1001.742004	0.988750	-0.013125	-1.010625
20.984001	-9.211000	997.593994	0.910000	0.013125	-1.111250
23.485001	-17.507000	1004.242981	0.923125	-0.148750	-0.936250
20.862000	-17.446001	1004.791992	0.853125	-0.188125	-0.993125
27.023001	-17.934000	1003.083984	0.875000	-0.266875	-0.945000
24.521999	-12.749001	1005.036011	0.953750	-0.249375	-0.988750
23.302000	-14.762000	1004.791992	0.971250	-0.126875	-1.010625
23.912001	-17.080000	1002.840027	0.726250	-0.100625	-0.971250
19.520000	-20.007999	1003.205994	0.796250	-0.166250	-1.111250
23.607000	-13.115000	1004.182007	0.796250	-0.035000	-1.120000
22.448000	-14.396000	1005.280029	0.905625	-0.183750	-0.975625
27.389000	-14.884000	1001.986023	0.822500	-0.205625	-0.927500
20.069000	-12.139000	1005.341003	1.128750	-0.231875	-0.896875
19.886000	-14.518001	1002.962036	1.137500	-0.297500	-0.918750
21.837999	-15.006001	1001.864014	0.756875	-0.166250	-0.905625
22.448000	-15.006001	1006.927002	0.809375	-0.175000	-0.945000
28.365000	-18.422001	1006.012024	0.831250	-0.153125	-1.036875
23.424000	-13.481000	1002.108032	1.023750	-0.122500	-0.936250
24.278000	-9.699000	1004.609009	0.962500	-0.245000	-0.931875
25.132000	-17.507000	1003.328003	0.638750	-0.175000	-0.949375
24.278000	-15.189000	1001.986023	0.818125	-0.056875	-0.945000
21.594000	-16.469999	1002.473999	0.988750	-0.052500	-1.045625
23.912001	-14.518001	1005.829041	0.853125	-0.188125	-1.050000
25.864000	-14.030000	1004.304016	0.923125	-0.144375	-1.045625
23.302000	-15.128000	1003.572021	0.866250	-0.275625	-0.984375
25.620001	-13.786000	1002.473999	0.735000	-0.140000	-0.962500
18.849001	-9.089000	996.434998	0.621250	-0.170625	-1.050000
23.607000	-15.067000	1007.476013	0.665000	-0.118125	-1.015000
27.877001	-17.080000	1005.158020	0.840000	-0.122500	-0.866250
27.450001	-19.642000	1006.500000	0.857500	-0.122500	-0.905625
26.962000	-12.749001	1001.619995	1.036875	-0.135625	-0.914375
22.936001	-11.956000	999.911987	0.975625	-0.070000	-0.940625
21.960001	-18.605000	1000.643982	1.058750	-0.275625	-0.945000
22.204000	-17.080000	1001.254028	1.010625	-0.214375	-1.071875
22.082001	-18.056000	1004.731018	0.861875	-0.091875	-1.063125
24.156000	-13.969000	1008.635010	0.927500	-0.083125	-1.001875
25.742001	-15.006001	1004.059998	0.931875	-0.105000	-0.949375
24.400000	-13.786000	1002.230042	0.892500	-0.227500	-0.984375
21.472000	-17.202000	1000.400024	0.958125	-0.231875	-0.997500
17.446001	-17.323999	1001.376038	0.936250	-0.258125	-0.896875
21.533001	-14.762000	998.692017	0.988750	-0.188125	-0.910000
28.487000	-13.054000	1001.803040	0.844375	-0.026250	-0.927500
26.230000	-17.446001	1003.694031	0.660625	-0.056875	-0.888125
23.546000	-19.153999	1002.230042	0.949375	-0.179375	-0.971250
23.302000	-13.725000	1001.010010	1.058750	-0.030625	-1.015000
22.936001	-9.089000	999.790039	0.651875	0.013125	-1.054375
26.413000	-12.078000	1006.072998	0.660625	0.008750	-1.054375
22.814001	-13.664001	1003.083984	0.634375	-0.043750	-0.997500
24.034000	-18.300001	1004.791992	0.840000	-0.131250	-0.984375
25.864000	-18.544001	1002.840027	0.927500	-0.210000	-0.931875
24.278000	-9.699000	1005.829041	0.914375	-0.218750	-1.045625
23.546000	-25.254000	1000.765991	1.019375	-0.253750	-0.971250
26.291000	-11.712000	1004.121033	0.927500	-0.323750	-1.006250
19.093000	-15.860001	1003.328003	0.822500	-0.280000	-0.923125
23.851000	-15.860001	1005.890015	0.892500	-0.196875	-1.058750
23.058001	-16.714001	1001.864014	0.866250	-0.179375	-0.975625
21.228001	-10.797000	1000.278015	0.879375	-0.135625	-0.980000
20.618000	-16.226000	1003.145020	0.805000	-0.074375	-0.975625
21.837999	-18.788000	1002.596008	0.787500	-0.100625	-0.861875
20.984001	-17.446001	1003.205994	0.896875	-0.078750	-0.971250
