A_X [mg]	A_Y [mg]	A_Z [mg]	G_X [dps]	G_Y [dps]	G_Z [dps]
-33.367001	-109.738998	944.402039	8.557500	5.801250	4.580625
-40.504002	-57.401001	1006.622009	8.028125	-5.495000	7.183750
-104.431999	-54.107002	989.541992	-2.078125	-26.298124	-8.789375
121.024002	-62.708000	1043.039062	7.892500	-10.355625	-7.118125
-40.625999	-31.171000	1017.663025	-3.955000	3.500000	2.034375
2.440000	-40.138000	1003.023010	-4.943750	2.598750	-2.515625
-8.174000	-18.849001	1004.242981	-5.687500	0.459375	-0.052500
11.712000	-47.031002	1030.411987	-2.695000	-2.113125	1.491875
-33.549999	-35.075001	1019.676025	-1.194375	0.406875	1.382500
-30.866001	-14.762000	994.788025	2.738750	-0.700000	-3.552500
-12.139000	-33.611000	1021.872009	9.095625	-4.300625	-5.687500
9.455000	-72.406998	1012.661011	4.930625	-8.863750	-5.140625
8.845000	-90.767998	1024.433960	-3.154375	-4.007500	-0.039375
-16.775000	-58.194000	892.002991	-4.576250	0.210000	5.565000
-5.612000	-31.171000	1031.265991	0.161875	-7.485625	-1.986250
0.610000	-26.169001	1043.222046	-2.576875	0.105000	2.931250
13.969000	-42.212002	1059.813965	-2.961875	-3.806250	3.276875
-12.200000	-32.939999	1021.750000	-1.824375	3.605000	2.266250
-4.941000	-45.079002	1007.903015	1.750000	-0.354375	2.121875
-23.180000	-36.600002	992.653015	-0.669375	0.275625	1.789375
-51.300999	-30.012001	1024.860962	-3.198125	-6.444375	-0.428750
-122.244003	-68.930000	1035.536011	-12.355000	-7.144375	-0.345625
-93.330002	-46.604000	1041.391968	-3.981250	-0.336875	-1.741250
-149.938004	-20.862000	1077.077026	11.029375	5.748750	4.099375
-186.598999	-9.089000	989.786011	7.608125	11.685625	0.516250
-166.469009	-29.646000	1004.731018	11.790625	14.848750	-4.208750
-175.253006	-2.928000	996.191040	-5.446875	20.085625	-4.781875
-165.554001	7.808000	970.265991	-2.568125	31.377501	-10.276875
-17.507000	-41.114002	975.817017	-5.783750	3.136875	-16.139376
26.840000	-28.365000	978.135010	5.744375	9.493750	-19.831875
-31.842001	72.406998	1011.624023	-5.184375	-17.766874	-7.726250
125.111000	-58.072002	1032.181030	2.944375	5.866875	-12.324375
138.104004	3.477000	1057.678955	11.383750	-15.732500	-3.062500
172.020004	-20.069000	960.994019	16.296875	-5.337500	-1.710625
185.867004	7.259000	983.320007	11.948125	-23.686251	-0.179375
178.181000	6.222000	1042.428955	2.782500	-15.211875	-2.572500
172.934998	0.610000	963.129028	-10.049375	1.793750	-3.106250
165.554001	-38.430000	1017.480042	-8.290625	1.054375	-3.780000
196.481003	-34.647999	1055.360962	-4.563125	3.342500	-3.456250
217.647995	-54.595001	1070.244995	11.672500	5.796875	-5.849375
208.436996	-19.337000	1058.776978	6.094375	15.408750	-8.771875
168.481995	-67.892998	932.507019	-6.230000	18.011875	-9.953125
165.432007	-25.742001	1042.001953	-7.266875	13.899375	-1.750000
141.886002	-16.104000	968.436035	-9.130625	18.659374	-6.960625
61.854000	-57.950001	966.606018	-12.748750	11.851875	17.692499
96.746002	-48.556000	992.165039	3.666250	-12.061875	4.086250
117.913002	40.809002	1064.693970	-6.903750	-28.717501	8.036875
48.983002	-40.260002	958.187988	-19.411875	-6.597500	-5.066250
15.799000	1.525000	1003.877014	-19.731251	-22.474375	2.572500
-15.189000	-50.507999	1005.707031	-10.198125	-10.263750	-9.515625
-65.453003	-38.307999	946.842041	-8.404375	-16.016874	0.892500
-154.085999	-79.483002	1030.046021	-24.014376	-15.063125	-4.007500
-65.391998	-116.265999	1077.687012	-9.056250	-14.091875	-1.885625
-114.375000	-113.216003	1013.210022	-44.734375	0.590625	-5.661250
-162.259995	-160.613007	955.077026	-36.758751	21.301874	6.243125
-252.479004	-194.834000	983.015015	-12.779375	8.325625	14.708750
-164.089996	-106.139999	977.098022	9.677500	1.124375	-4.528125
-144.203995	-148.229996	955.809021	18.983126	33.477501	2.603125
-62.525002	-146.095001	1077.808960	12.801250	2.415000	-0.818125
-46.604000	-142.007996	1106.357056	7.376250	4.694375	6.365625
-19.398001	-138.470001	1056.824951	4.751250	3.325000	6.405000
-15.189000	-142.617996	1005.829041	12.442500	6.838125	7.704375
-19.703001	-140.361008	999.546021	10.832500	-1.286250	8.732500
-21.655001	-128.587997	996.374023	10.539375	-1.277500	3.346875
-18.300001	-116.205002	985.028015	10.745000	0.021875	1.846250
-14.213000	-104.066002	1000.522034	9.139375	-2.314375	-0.175000
-11.529000	-95.831001	1029.375000	4.256875	-1.596875	-0.739375
1.281000	-90.219002	992.897034	0.315000	2.502500	-0.682500
-28.426001	-86.925003	1016.992004	3.666250	1.316875	3.495625
-8.296000	-92.537003	1019.066040	4.060000	-1.518125	-0.161875
7.625000	-85.400002	984.174011	0.971250	-0.017500	-1.163750
19.642000	-93.757004	1026.812988	-7.393750	-1.675625	2.804375
-6.527000	-94.123001	1006.377991	-5.031250	4.344375	4.462500
-10.492001	-83.692001	1006.682983	1.846250	2.450000	1.662500
-9.333000	-84.973000	1031.021973	2.025625	-3.206875	-0.148750
0.549000	-77.530998	1027.545044	3.416875	1.286250	-3.311875
3.477000	-82.289001	1024.494995	0.936250	-9.677500	-2.318750
13.908000	-83.875000	1022.665039	2.957500	-6.238750	-1.290625
-16.958000	-77.775002	975.085022	3.189375	10.727500	2.537500
-28.365000	-78.873001	1019.492981	6.190625	0.525000	0.866250
-17.873001	-72.406998	1003.328003	9.008125	3.810625	-5.026875
-7.381000	-83.936005	1008.085999	3.062500	3.618125	-4.803750
-1.220000	-70.089005	1019.981018	5.162500	1.614375	1.443750
13.664001	-53.618999	1012.661011	10.342500	2.926875	2.795625
6.283000	-55.693001	1027.972046	9.113125	-4.943750	4.948125
-24.156000	-50.081001	1005.890015	0.638750	-8.207500	6.426875
-131.699005	-97.417000	1041.208984	-10.377500	-25.646250	9.760625
-247.721008	-128.283005	1132.953003	-5.971875	-39.353127	2.331875
-278.403992	-63.195999	1095.682007	6.632500	-15.951250	-2.336250
-265.166992	-26.657000	1046.821045	2.174375	5.411875	-11.248125
-225.272995	-51.605999	990.822998	-10.513125	37.174374	-8.793750
-148.291000	-46.482002	980.697021	1.579375	15.360625	-10.701250
-23.790001	-4.880000	970.205017	21.415625	39.563126	-9.572500
-19.032000	16.348000	967.765015	49.997501	22.815624	-9.629375
72.101997	106.567001	863.210999	40.722500	6.330625	-9.988125
61.000000	132.553009	997.960022	40.556252	-18.860624	-7.175000
192.150009	100.284004	897.249023	-3.867500	-5.674375	-11.130000
370.026001	34.831001	1061.338989	3.845625	-20.956249	-11.029375
436.760010	95.709000	1110.626953	-0.376250	-3.696875	11.392500
276.024994	121.817001	1205.665039	-22.575001	-17.027500	1.986250
263.764008	38.735001	1129.719971	-19.018126	-4.173750	-4.589375
245.585999	20.130001	1062.071045	-8.330000	14.700000	-7.910000
287.798004	6.771000	995.520020	-6.444375	30.826250	-3.403750
262.971008	6.649000	1021.994019	6.173125	19.578125	5.862500
237.656006	-43.737000	1027.728027	-19.735624	29.325624	-1.439375
216.244995	-57.889000	1055.239014	-31.456249	3.491250	-5.320000
199.042999	-110.348999	1031.204956	-40.499374	10.605000	8.312500
104.309998	-24.827000	902.190002	-3.806250	21.752501	-7.608125
2.745000	23.058001	1013.942017	-7.463750	-5.595625	24.959375
-60.207001	7.686000	923.783997	9.957500	-15.750000	11.795000
-125.538002	83.204002	1031.144043	7.218750	-43.006248	40.674374
-228.872009	-10.492001	1089.703979	24.198126	-21.218750	13.361250
-158.722000	85.827003	1001.986023	-3.508750	-19.963125	-18.016251
-216.854996	49.471001	939.095032	3.421250	-14.980000	-19.075001
-214.475998	-10.980000	861.625000	-3.889375	-9.288125	-15.369375
-284.565002	-47.336002	1030.534058	-10.928750	-7.581875	-20.558125
-297.863007	-108.640999	1168.211060	-19.486250	-13.343750	-23.848125
-133.956009	-74.969002	1088.972046	-35.157501	11.440625	-24.745001
-69.845001	-65.758003	1081.286011	-32.252499	21.126875	-2.944375
13.420000	-103.761002	1054.994995	-24.780001	24.530624	19.643749
-24.278000	-91.744003	1052.128052	0.358750	17.937500	26.897499
0.854000	-85.522003	932.445984	22.518126	15.833125	16.187500
-7.259000	-75.274002	1010.038025	19.473125	-0.017500	6.518750
8.235000	-71.553001	961.726013	5.516875	-2.257500	1.303750
-2.074000	-83.387001	962.153015	1.701875	-5.442500	5.600000
-34.892002	-107.604004	987.468018	-2.913750	-2.458750	-3.272500
-9.455000	-87.351997	1037.549072	-8.855000	-2.830625	-7.463750
-7.320000	-64.476997	1034.926025	-5.600000	5.219375	-5.044375
-4.087000	-54.961002	1031.692993	-6.186250	1.373750	-3.193750
-12.627000	-50.996002	1040.904053	-3.740625	-0.091875	0.818125
8.479000	-68.197998	1012.478027	-4.283125	0.280000	-0.739375
2.318000	-82.106003	1008.085999	2.078125	-0.813750	2.511250
-3.050000	-104.614998	976.244019	-1.631875	-0.651875	0.739375
-10.980000	-102.968002	980.635986	-3.163125	-0.568750	-0.551250
-11.346000	-93.147003	988.444031	1.010625	0.651875	0.481250
-25.681000	-88.999001	990.213013	1.946875	-4.978750	1.715000
-67.649002	-105.042000	1024.800049	1.544375	-10.154375	2.305625
-178.181000	-122.366005	1084.458008	-3.819375	-20.505625	-0.813750
-217.464996	-120.902000	1092.875977	-0.144375	-27.986876	-11.917500
-233.691010	-61.000000	1043.832031	18.991875	-11.116875	-12.836250
-266.265015	-63.135002	1076.833008	20.982500	-0.826875	-16.200624
-188.612000	-27.755001	989.603027	23.463125	10.688125	-10.255000
-221.917999	14.274000	929.640015	12.880000	32.436249	-1.461250
-115.595001	-25.132000	907.192017	8.995000	16.572500	-0.113750
-29.158001	11.590000	988.627014	28.266874	18.094999	5.280625
52.154999	-24.461000	1065.120972	37.760624	-4.217500	2.843750
163.053009	98.759003	1038.829956	1.785000	-13.015625	13.085625
168.970001	47.031002	1107.271973	-16.226875	-3.399375	-2.646875
349.529999	29.951000	961.786987	-20.684999	25.414375	-9.633750
341.539001	41.723999	962.275024	-1.334375	24.360001	-11.545625
417.972015	70.150002	913.475037	9.817500	-13.186250	-8.942500
245.647003	14.213000	1146.373047	14.236250	-21.161875	5.298125
294.141998	25.620001	1088.911011	-10.351250	10.395000	-3.053750
290.787018	7.686000	1026.447021	-13.663125	18.169374	5.516875
195.016998	-3.843000	1095.682007	-9.782500	17.745001	-6.956250
223.138000	-46.299000	1026.691040	-24.596251	41.829376	-19.525625
194.956009	-35.746002	992.958008	-43.522499	33.162498	-23.953125
85.155998	-58.011002	911.462036	21.385000	37.695000	-3.906875
-52.399002	-91.987999	935.862000	23.065001	-16.384375	26.149376
-47.396999	-3.599000	983.380981	12.289375	-30.940001	-0.616875
-134.261002	62.525002	1071.708984	0.691250	-61.551876	4.834375
-115.534004	63.500999	1051.213013	-0.857500	-59.005627	15.955625
-154.025009	19.337000	1091.350952	4.326875	-31.456249	27.746250
-243.755997	29.219000	911.035034	-0.717500	19.298124	15.846250
-252.479004	53.558002	973.559998	-30.861250	5.718125	14.253750
-226.676010	-17.385000	927.200012	-22.461250	-14.087500	11.165000
-174.337997	-66.673004	984.845032	-17.626875	-0.511875	0.406875
-88.938004	-61.487999	1056.093018	11.038125	12.814375	-2.913750
-10.126000	-41.968002	1042.978027	-8.820000	-10.399375	-1.417500
-21.350000	-61.792999	1063.291016	13.343750	-1.806875	4.926250
7.625000	-26.169001	1024.677979	-4.112500	24.937500	3.373125
-2.074000	-63.562000	1013.027039	-11.856250	15.159375	1.286250
-1.037000	-58.499001	969.046021	-0.905625	3.793125	-3.565625
-17.568001	-66.734001	1027.849976	0.761250	-2.091250	-5.425000
-2.928000	-60.817001	1029.557983	-0.599375	-0.433125	-5.884375
15.433001	-61.000000	1046.760010	5.455625	-0.428750	0.879375
13.115000	-44.225002	1037.915039	7.266875	2.458750	6.352500
-4.453000	-51.484001	1024.250977	6.531875	-0.748125	10.718750
-15.006001	-57.889000	992.348022	4.641875	-0.441875	4.593750
-17.202000	-37.209999	1008.330017	2.069375	-2.183125	0.262500
-5.002000	-36.904999	999.851013	-5.718125	-0.376250	-2.078125
5.978000	-38.917999	1003.267029	-7.481250	0.507500	-3.307500
13.359000	-40.138000	995.093018	-4.195625	0.245000	-1.386875
0.427000	-44.591000	1002.351990	2.905000	-5.040000	-1.054375
9.089000	-48.617001	1002.473999	0.070000	-14.061250	-1.631875
18.177999	-48.861000	990.945007	-4.913125	-6.558125	0.017500
7.564000	-44.591000	1036.451050	-4.090625	-8.386875	2.625000
-15.189000	-63.195999	1052.859985	-1.592500	-8.776250	1.960000
-30.622000	-61.243999	1035.414062	3.508750	-0.870625	-0.914375
-67.161003	-28.731001	1043.343994	6.435625	-2.874375	-0.778750
-149.999008	-41.174999	1059.265015	-7.682500	-6.868750	-4.795000
-177.266006	-50.386002	1013.332031	17.211250	-1.680000	3.845625
-232.288010	-16.531000	1057.008057	8.483125	-1.706250	2.196250
-202.886002	-26.230000	1052.982056	12.061875	15.242500	-5.980625
-199.897003	20.313000	1060.424072	9.568125	15.106875	-1.618750
-142.496002	30.073000	1042.245972	24.605000	29.334375	3.311875
-155.916000	59.963001	1030.473022	0.166250	12.779375	-5.285000
-58.743000	50.507999	941.535034	8.500625	26.735624	-0.135625
-13.847000	10.858000	938.057983	0.227500	8.229375	-3.351250
72.041000	44.103001	1051.213013	-1.159375	-16.060625	-2.095625
294.812988	3.843000	866.809998	21.170626	8.767500	-9.165625
460.123016	-56.486000	908.351013	6.426875	-12.223750	-20.177500
480.313995	52.948002	1102.697021	-4.331250	-53.668125	-26.385626
387.045013	129.746994	1150.155029	-9.926875	-25.847500	-17.876249
301.950012	42.517002	1154.119995	-11.510625	6.527500	-0.546875
404.308014	-34.526001	1074.697998	-13.838125	24.176250	9.576875
336.597992	-35.929001	982.710022	-20.733126	51.371250	18.856251
285.175018	-153.475998	955.382019	-24.670626	64.535622	11.156250
71.613998	-48.922001	914.085022	-3.626875	27.864374	6.943125
142.617996	-113.764999	944.280029	-9.406250	-8.028125	14.126875
-10.004000	47.702000	926.773010	28.227501	-23.905001	2.738750
104.188004	-6.100000	1008.695984	8.203125	-77.875000	4.746875
-154.025009	-43.615002	1048.285034	-12.586875	-50.500626	12.267500
-131.089005	-69.784004	1116.239014	-12.508125	-33.740002	0.385000
-186.050003	89.609001	1016.077026	-2.288125	1.470000	2.139375
-232.044006	21.045000	1023.824036	-15.631875	-3.731875	11.270000
-263.580994	-24.034000	1097.024048	-0.406875	1.955625	8.745625
-263.153992	-89.669998	1135.880981	-15.211875	1.163750	-5.088125
-175.070007	-89.731003	1069.513062	-13.308750	17.574375	-33.757500
19.886000	1.342000	1023.458008	-15.413125	22.662500	-26.753124
36.478001	-22.387001	1089.826050	-12.923750	9.043125	-6.260625
51.850002	-76.982002	1096.536011	-1.960000	35.004375	6.571250
19.642000	-63.013000	979.660034	15.216250	27.903749	18.423124
-17.507000	-96.624001	947.390991	22.785000	25.514999	18.900000
-38.125000	-93.330002	949.830994	14.406875	-8.535625	8.645000
-46.970001	-87.778999	1009.184021	3.180625	-5.783750	-0.647500
-41.480000	-54.229000	999.851013	-7.831250	3.762500	-6.597500
-43.554001	-56.608002	1014.979004	-10.128125	-1.238125	-8.535625
-21.045000	-62.890999	1026.751953	-6.466250	-1.036875	-7.135625
-31.720001	-58.438000	994.056030	-0.196875	1.881250	-3.968125
-23.973000	-70.028000	1013.759033	0.205625	-3.403750	-3.237500
-11.407001	-63.867001	1006.500000	0.896875	-5.665625	-1.360625
-8.357000	-61.792999	1011.929016	-1.093750	-0.371875	-0.083125
-27.084000	-63.684002	995.764038	-7.647500	-1.903125	0.595000
-25.193001	-68.625000	1032.546997	-1.929375	-4.991875	-1.850625
-19.398001	-66.978004	1023.031006	3.320625	0.730625	-1.916250
-33.184002	-72.956001	1029.984985	4.361875	-0.796250	-0.026250
-40.260002	-63.318001	1046.698975	5.123125	-5.543125	0.616875
-50.020000	-64.476997	1028.093994	3.613750	-0.835625	-0.175000
-111.141998	-72.651001	1018.395020	-0.643125	-0.008750	2.795625
-160.979004	-72.895004	1056.581055	-1.570625	-9.266250	1.767500
-236.375000	-88.266998	1058.045044	1.168125	-2.393125	-1.662500
-226.798004	-23.302000	1022.970032	1.697500	-4.033750	-6.588750
-212.462997	-52.338001	1038.159058	-10.171875	2.528750	-5.779375
-195.078003	-66.184998	1021.811035	-10.246250	13.138125	-2.743125
-153.048996	-71.187004	994.605042	-2.905000	26.761875	5.687500
-160.856995	-49.166000	972.278992	7.144375	26.691875	15.076250
-147.193008	-70.272003	978.195984	10.539375	8.662500	10.998750
-40.992001	-12.810000	875.228027	21.559999	0.730625	1.133125
-8.601000	40.992001	1091.777954	9.174375	-28.546875	-15.426250
186.416000	52.338001	984.418030	17.994375	-28.848749	-14.021875
252.723007	18.483000	1007.781006	-7.310625	7.284375	-8.421875
291.580017	11.041000	991.677002	-3.797500	-9.410625	0.288750
336.903015	-28.487000	993.629028	-12.460000	-29.032499	-1.334375
333.304016	-33.062000	1092.144043	-10.259375	-21.669374	0.560000
385.459015	-92.903000	1134.722046	-7.980000	-5.630625	-5.355000
410.713013	-108.945999	1242.570068	-8.273125	-4.536875	-9.471875
364.048004	-132.309006	957.273010	-13.514375	16.318750	-12.464375
256.871002	-142.130005	833.260010	-7.691250	39.466873	-11.361875
164.882996	-114.131004	861.442017	6.877500	36.815624	-1.032500
144.875000	-78.018997	915.854004	17.898125	31.053749	10.434375
51.484001	-31.476000	996.434998	8.544375	3.482500	19.980625
-60.451000	0.183000	995.520020	7.284375	-11.900000	25.462500
-40.320999	-65.636002	1066.463013	-17.920000	-20.409374	9.905000
-159.514999	-23.363001	1012.905029	-26.411875	4.698750	-0.035000
-212.768005	4.148000	939.705017	-29.421875	4.895625	-8.544375
-350.994019	-49.837002	904.325012	-9.060625	9.721250	1.719375
-336.231995	-64.050003	1041.818970	-5.022500	12.919375	-9.996875
-314.821014	-85.095001	1128.378052	18.707500	-4.711875	-10.263750
-183.182999	-126.331001	1071.221069	5.989375	-7.739375	-15.465625
-126.086998	-142.740005	1064.999023	0.853125	-13.120625	-22.028126
-57.645000	-99.735001	1041.087036	12.232500	9.721250	-0.030625
-56.791000	-49.715000	981.489990	17.386250	4.003125	5.429375
-234.667007	-74.603004	966.666992	52.788750	-9.139375	6.234375
15.311000	7.564000	1039.623047	13.326250	-12.521250	-12.153750
27.450001	-18.910000	1073.172974	-6.960625	3.010000	5.306875
-19.337000	-31.598000	1031.021973	-11.081875	19.998125	19.276251
-25.559000	-71.918999	973.499023	-16.883125	21.376249	5.761875
-43.249001	-54.961002	974.353027	-4.851875	10.955000	6.076875
-42.761002	-45.993999	1008.085999	9.625000	5.420625	6.094375
-35.501999	5.490000	1038.036987	15.028125	2.961875	10.823750
-69.540001	23.180000	1037.365967	4.221875	8.041250	7.778750
-64.965004	2.623000	1009.062012	-5.534375	2.336250	-1.715000
-43.859001	-46.055000	981.307007	-3.434375	-1.855000	-5.670000
-67.527000	-57.340000	1000.338989	-0.590625	-3.263750	-1.658125
-81.129997	-35.806999	1013.880981	-6.794375	-1.181250	1.688750
-57.218002	1.708000	1015.650024	-8.295000	-4.051250	3.171875
-67.832001	-13.054000	1004.304016	3.893750	-4.405625	0.848750
-61.061001	32.146999	1105.869019	17.780001	-5.359375	-3.740625
70.943001	1.464000	919.514038	10.198125	-3.158750	-6.020000
101.565002	-83.447998	1105.747070	-22.610001	-7.056875	8.938125
73.139000	5.429000	1006.439026	-14.735000	9.760625	48.011250
93.025002	-50.569000	1093.608032	-5.547500	-9.585625	36.084999
113.704002	-21.716000	1005.463013	-14.949375	-7.035000	1.828750
39.223000	-6.710000	950.380005	-37.751877	-8.859375	-12.744375
41.418999	-16.714001	964.288025	-36.798126	-27.168751	-9.288125
117.608002	-120.597000	989.481018	-30.764999	-21.555626	-0.861875
39.833000	-157.014008	973.377014	-6.689375	-0.385000	4.795000
38.491001	-140.361008	918.233032	11.178125	28.336876	9.366875
47.214001	-162.382004	954.528015	7.306250	27.794374	9.100000
59.292000	-143.899002	973.621033	2.100000	-6.475000	6.151250
35.319000	-117.303001	918.721008	6.405000	-21.411249	15.395625
-7.686000	-130.479004	976.976013	16.349375	-10.666250	15.098125
-168.298996	-62.646999	1056.885986	0.546875	-20.912500	2.047500
-187.697006	-66.794998	1100.379028	-4.926250	-31.723125	-6.628125
-188.794998	-92.720001	1076.040039	-6.173125	-19.858126	-7.476875
-202.031998	-98.637001	1067.500000	-1.128750	-2.712500	-13.873125
-162.320999	-140.178009	1029.924072	6.562500	-3.815000	-16.856874
-194.529007	-119.011002	1060.850952	-0.525000	2.756250	-15.763125
-169.518997	-162.869995	1051.274048	-5.140625	3.329375	-8.255625
-201.421997	-156.831009	1050.603027	-6.282500	7.026250	-7.813750
-210.694000	-128.649002	1004.669983	9.524375	12.954375	-10.718750
-163.906998	-82.167000	940.742004	3.591875	10.171875	-18.335625
-139.568008	-80.215004	935.252014	7.494375	26.070625	-15.592500
-89.548004	-38.917999	1056.214966	10.027500	12.411875	-1.448125
-53.618999	-37.820000	1029.253052	15.566250	24.303125	0.175000
73.444000	-42.761002	993.324036	11.449375	42.354374	-4.926250
148.169006	-46.360001	953.856995	2.751875	21.087500	-0.796250
174.094009	-0.183000	1042.489990	3.679375	-3.460625	-0.875000
229.542999	-44.164001	1075.857056	10.692500	-0.389375	6.619375
220.149002	-28.059999	1100.623047	-3.145625	-12.530000	11.064375
167.201004	-60.451000	1087.203003	-8.798125	-5.810000	13.829375
134.322006	-56.547001	1042.795044	-10.565625	3.189375	15.732500
61.792999	-85.278000	1020.773987	-4.475625	6.505625	10.596250
27.877001	-85.765999	1013.942017	0.161875	4.243750	4.191250
-4.941000	-48.129002	968.984985	-4.681250	5.766250	1.251250
-17.263000	-39.406002	995.031982	0.529375	-3.513125	2.016875
-25.681000	-35.685001	1011.257996	-1.465625	-5.289375	1.290625
-27.694000	-44.225002	1010.160034	3.889375	-12.578125	2.699375
-13.359000	-50.691002	1040.721069	6.741875	-9.791250	-0.004375
-29.280001	-50.142002	1012.661011	8.111250	-1.636250	-1.859375
-35.806999	-41.907001	1014.186035	9.388750	-5.171250	-4.383750
-26.474001	-40.077000	1024.312012	7.350000	-5.538750	-7.468125
-16.226000	-22.204000	1027.972046	7.555625	-1.395625	-4.576250
-23.546000	-33.000999	1044.320068	4.637500	-3.521875	-3.758125
41.785000	-23.790001	1036.634033	1.732500	10.333750	-4.313750
123.525002	-22.448000	1093.912964	-1.986250	7.341250	-4.738125
160.735001	-32.208000	1126.426025	0.170625	3.080000	-1.627500
216.733002	-18.605000	1046.211060	-2.353750	15.758750	5.464375
193.248001	-44.591000	835.639038	6.059375	18.554375	9.769375
129.807999	5.612000	986.126038	2.533125	2.668750	18.869375
129.990997	22.448000	989.725037	-4.935000	-15.076250	25.138750
101.565002	-12.566000	1004.609009	6.768125	-17.504375	31.254999
-14.945000	-21.655001	975.390015	6.448750	-7.393750	33.599998
-28.121000	-21.228001	955.320984	-3.390625	-0.179375	14.240625
-189.710007	-16.469999	911.340027	-20.606251	-1.793750	1.010625
-175.557999	-40.809002	955.199036	-20.978125	-12.818750	4.016250
-211.059998	-53.741001	987.712036	-7.656250	-12.670000	-0.201250
-202.886002	-4.087000	1018.639038	-3.211250	7.581875	-12.893125
-216.367004	-48.250999	1034.803955	-12.595625	-9.393125	-22.815624
-225.578003	-77.897003	1064.633057	-11.484375	-5.573750	-30.344999
-204.594009	-85.583000	1065.670044	-19.459999	6.925625	-32.698750
-174.460007	-122.975998	1077.138062	-11.869375	6.081250	-10.386250
-257.541992	-109.068001	1053.713989	-3.561250	7.140000	-8.194375
-308.416016	-140.178009	1011.624023	21.787500	-1.925000	-14.560000
-300.058990	-108.397003	1056.764038	18.471251	-9.975000	-19.166876
-249.307007	-98.271004	1013.454041	13.842500	-0.026250	-9.856875
-273.402008	-73.261002	1000.033997	6.282500	25.449375	-3.036250
-195.809998	-52.643002	895.541016	8.115625	29.155001	-5.880000
-39.894001	-42.517002	935.923035	-9.121875	32.729374	0.227500
65.574997	-58.499001	963.251038	-6.339375	41.365623	-12.066250
176.350998	3.965000	1007.293030	-0.870625	36.426250	-7.240625
226.737000	-3.111000	1005.768005	-9.279375	14.958125	-6.798750
231.068008	-12.749001	1007.415039	-6.641250	-19.674376	-8.907500
176.412003	-5.673000	1140.151001	3.342500	-15.540000	4.571875
158.783005	-71.431000	1119.472046	-1.330000	-29.238125	5.849375
111.386002	-42.151001	1101.110962	4.738125	-14.538125	9.555000
58.011002	-50.020000	1040.843018	10.268125	-7.039375	6.361250
-0.915000	-50.202999	1023.640991	10.955000	-6.020000	-1.023750
-19.093000	-20.496000	993.629028	0.498750	-0.306250	-4.427500
-29.951000	-80.946999	1024.677979	-2.515625	-11.344375	-3.858750
-10.187000	-21.472000	1013.575989	-0.301875	-25.025000	-6.243125
-5.734000	-50.813000	997.960022	1.645000	-14.595000	-0.236250
-21.228001	-50.325001	1005.096985	8.496250	-3.189375	4.173750
-30.500000	-32.939999	1030.717041	5.228125	-13.046250	6.308750
-24.095001	-25.132000	1008.268982	8.806875	4.169375	4.978750
-20.007999	-26.413000	1018.882996	8.846250	-1.745625	5.884375
-12.627000	-9.272000	1002.656982	3.202500	-5.219375	6.575625
-16.531000	-41.846001	1015.345032	-3.508750	2.664375	5.035625
-5.856000	-33.306000	1013.575989	-3.521875	8.085000	-0.039375
-9.882000	-24.156000	1037.792969	-3.823750	10.539375	0.354375
-2.806000	-19.947001	1029.497070	0.783125	9.016875	1.400000
-10.370000	-14.274000	1024.312012	2.410625	13.860000	-0.043750
19.459000	-10.248000	1039.135010	2.165625	14.249375	0.175000
35.136002	-33.489002	1032.425049	3.014375	12.626250	-3.281250
125.111000	-16.531000	1119.776978	-5.416250	1.417500	-3.605000
210.876999	-39.650002	1142.286011	-14.564375	5.136250	-3.430000
275.354004	-45.567001	1101.660034	-10.696875	1.211875	10.005625
245.037003	-51.910999	1050.420044	-12.508125	-3.801875	15.176875
180.376999	-36.355999	930.981995	-18.055626	-2.240000	14.406875
134.444000	-34.952999	877.729004	-8.439375	-0.415625	11.790625
66.794998	-60.756001	903.104980	-12.053125	-6.658750	4.698750
-23.241001	-34.892002	934.947021	-5.145000	-27.772499	14.026250
-101.320999	-22.021000	969.168030	13.072500	-21.953751	10.351250
-188.001999	-92.292999	972.705994	-3.810625	-30.861250	5.381250
-200.811996	-115.290001	979.233032	-28.021875	-22.124374	-9.725625
-291.701996	-131.149994	1010.770020	-41.514374	-2.988125	-16.629375
-323.300018	-167.322998	1063.718018	-21.157499	38.919998	-5.998125
-359.351013	-172.141998	1003.816040	-1.666875	32.011875	-3.657500
-393.450012	-149.694000	1004.364990	18.025000	20.085625	-11.624375
-339.282013	-151.951004	1040.233032	23.528749	0.726250	-22.526875
-284.626007	-160.003006	1088.911011	20.365625	2.104375	-22.295000
-238.632004	-116.632004	1000.705017	22.513750	17.863125	-11.930625
-234.179001	-61.976002	953.002991	16.743126	42.253750	-15.710625
-154.940002	-75.091003	994.666016	32.475624	39.654999	4.064375
-195.992996	-16.287001	1069.390991	28.511875	52.994373	8.032500
-103.211998	-6.954000	967.033020	10.714375	43.128750	3.237500
-140.604996	46.055000	1023.885010	-17.438749	36.596874	10.985625
-73.200005	-89.364998	783.666992	-46.921875	27.816250	-1.426250
-37.027000	-29.097000	988.871033	-7.231875	2.900625	10.101875
-14.762000	-56.303001	1036.390015	-5.123125	-2.944375	-0.678125
9.089000	-54.900002	1073.661011	7.459375	-34.698124	-5.101250
28.975000	-36.844002	1141.005005	-0.621250	-30.712500	-6.899375
19.215000	-55.021999	1080.249023	3.176250	-13.886250	-1.430625
-15.311000	-45.993999	1114.225952	-0.822500	-20.313126	3.080000
-32.452000	-62.769001	1053.592041	1.754375	-16.555000	8.246875
-71.125999	-48.983002	1017.906982	9.979375	-14.153125	9.887500
-78.690002	-49.653999	985.942993	10.885000	-22.846251	6.838125
-96.441002	-28.426001	1018.822021	12.044375	-20.540625	1.465625
-80.641998	-36.844002	1020.164001	7.914375	-10.596250	-2.581250
-67.282997	-7.503000	1013.575989	5.232500	-9.874375	-1.697500
-49.105000	-5.124000	1001.376038	-1.627500	-6.645625	2.537500
-68.259003	-17.568001	1007.231995	-2.524375	4.453750	2.673125
-77.714005	-7.625000	1004.242981	0.271250	-3.228750	3.815000
-71.736000	-27.450001	1010.403992	0.581875	-7.726250	0.105000
-64.111000	-14.945000	1017.663025	2.463125	-4.725000	-2.603125
-47.031002	-12.261000	1011.502014	0.503125	-4.064375	-2.620625
-50.751999	-1.647000	1017.419006	-1.321250	-1.203125	-1.990625
-60.817001	-16.042999	1023.092041	-4.585000	1.448125	-1.750000
-57.340000	-20.557001	1005.645996	-3.307500	0.560000	-2.900625
-54.716999	-23.973000	1011.380005	-0.096250	-0.726250	-3.675000
-34.587002	-29.951000	1026.264038	0.901250	-4.808125	-4.655000
-9.638000	-29.829000	1031.204956	-2.248750	5.639375	-9.961875
34.647999	-20.252001	1044.380981	-4.388125	5.626250	-8.273125
70.089005	-32.939999	1067.682983	-4.891250	6.934375	-4.379375
120.902000	-40.260002	1060.302002	4.851875	8.106875	-5.013750
168.360001	-15.372000	1053.775024	3.749375	-7.660625	-9.196250
180.925995	21.228001	908.473022	6.615000	-8.509375	-11.935000
247.964996	13.359000	1109.285034	1.557500	-17.828125	-3.005625
176.350998	7.869000	1066.280029	-14.546875	-18.978750	15.850625
108.885002	-30.866001	914.023987	-17.990000	-2.410625	18.305000
21.716000	-88.266998	917.317993	-27.601875	-16.616249	12.468750
-42.821999	-51.545002	996.191040	4.860625	-41.033127	12.818750
-57.096001	-10.065001	1041.391968	-2.100000	-56.157501	2.778125
-48.190002	-107.542999	1020.164001	-0.218750	-19.888750	-5.678750
-72.528999	-104.919998	1018.455994	-14.529375	-12.696250	-8.610000
-124.013000	-123.708000	1018.151001	-20.545000	15.194375	-6.151250
-340.868011	-89.243004	1100.806030	0.721875	40.866875	7.196875
-365.938995	-77.958000	1064.816040	15.216250	10.040625	14.533750
-279.441010	-54.839001	997.411011	11.545625	-12.998125	23.537500
-274.500000	-42.456001	1031.875977	24.364374	10.692500	24.478125
-242.109009	-35.196999	1063.108032	30.117500	16.992500	19.591249
-232.654007	-16.592001	1009.976990	27.566875	13.654375	6.693750
-134.749008	-30.743999	1038.159058	9.607500	24.101875	-6.028750
-104.066002	-22.082001	1004.304016	-3.762500	31.495625	-8.268750
-96.258003	15.433001	1001.924988	-1.601250	38.158749	-12.219375
-80.520004	21.594000	919.819031	13.514375	36.413124	-26.004999
-26.535000	22.936001	983.564026	19.026875	34.304375	-23.060625
-5.673000	38.430000	937.997009	-0.888125	13.741875	-31.631250
83.752998	54.534000	925.674988	-0.428750	17.801874	-26.442499
121.695000	76.982002	912.499023	-13.549375	8.356250	-24.294374
123.159004	44.591000	1226.161011	14.888125	6.409375	20.597500
84.424004	36.355999	1224.880005	-17.084375	-3.351250	27.619375
-19.825001	30.195000	1084.579956	-21.420000	2.852500	19.862499
-32.146999	-3.782000	1057.678955	-12.525625	9.940000	14.529375
-84.973000	-11.590000	1022.116028	-8.596875	10.456250	5.871250
-105.834999	-28.121000	984.174011	-1.159375	-4.361875	-5.805625
-110.593002	-12.993000	992.775024	8.833125	-3.618125	-12.263125
-124.745003	14.457000	996.862000	3.154375	-6.370000	-16.926874
-134.688004	3.172000	991.005981	-3.115000	-15.487500	-12.114375
-140.421997	-17.873001	1011.684998	-6.378750	-17.084375	-5.945625
-134.565994	-23.851000	990.762024	-9.016875	-5.578125	-1.474375
-129.442001	-26.535000	989.298035	-5.053125	-10.193750	1.653750
-117.973999	-25.254000	1008.817993	-4.090625	-5.871250	4.401250
-114.802002	-42.882999	1014.429993	-0.516250	-6.195000	6.759375
-108.275002	-36.660999	1043.282959	6.195000	-10.158750	2.861250
-95.709000	-25.925001	1023.153015	7.406875	-6.947500	2.541875
-102.113998	-23.485001	1025.166016	2.646875	-3.364375	2.043125
-85.827003	-17.263000	1022.359985	-0.315000	3.005625	2.730000
-92.780998	-17.873001	1007.658997	1.697500	0.892500	4.506250
-82.716003	-17.507000	1011.075012	3.591875	-1.596875	2.296875
-71.675003	-16.836000	1008.208008	3.115000	-3.443125	1.067500
-60.573002	-17.323999	1023.031006	-0.328125	-0.398125	-0.446250
-59.414001	-12.505000	1024.312012	-0.910000	3.377500	-0.336875
-37.453999	-9.333000	1036.572998	-0.936250	-3.841250	-3.784375
15.067000	-25.620001	1099.463989	-4.331250	2.104375	-4.615625
67.527000	-36.234001	1075.552002	-14.315000	1.859375	-3.924375
105.712997	-19.215000	1058.105957	-14.752500	-4.173750	5.495000
107.725998	-67.709999	1047.675049	-13.033125	-3.106250	16.349375
84.790001	-131.393997	1012.966003	-24.381874	9.712500	7.070000
55.327000	-78.628998	989.541992	-25.528126	13.133750	-10.351250
105.834999	-52.521000	948.611023	-34.606251	-13.558125	-20.199375
94.550003	-87.351997	974.414001	-29.365000	-27.177500	-18.370625
77.225998	-135.481003	1030.229004	-23.051874	-50.614376	-0.866250
30.012001	-143.472000	996.252014	-6.733125	-34.313126	7.380625
-13.176001	-148.108002	882.975037	-3.845625	-44.222500	2.248750
-79.605003	-129.625000	903.958984	5.503750	-38.779999	2.205000
-187.453003	-120.353004	970.449036	35.643124	-11.602500	0.721875
-315.675018	-111.264000	1029.619019	36.242500	-14.708750	-6.177500
-309.087006	-122.305000	1193.587036	36.732498	-2.100000	-14.800625
-226.432007	-43.859001	1132.037964	15.824375	-12.670000	-19.678749
-147.436996	-32.818001	1030.838989	-1.413125	7.389375	-9.795625
-168.725998	-67.954002	1090.619019	-7.826875	21.945000	-5.718125
-177.083008	-72.773003	1060.607056	5.158125	23.773750	-3.535000
-150.304001	-40.869999	1050.053955	-6.632500	30.463125	-13.505625
-83.997002	-78.445999	1032.669067	-1.596875	30.677500	-8.308125
-80.336998	-17.995001	945.682983	17.924376	41.667500	-6.313125
-18.177999	-1.891000	860.221985	16.078125	45.443127	-7.700000
149.694000	-22.326000	981.734009	15.715000	49.376251	-0.144375
95.098999	99.307999	1129.598022	8.596875	47.525623	19.831875
141.703003	-88.389000	1063.291016	4.515000	27.295626	19.512501
170.311996	108.945999	1028.520996	-32.637501	-22.986250	0.953750
71.613998	-49.288002	987.955994	-9.983750	-0.953750	28.656250
-80.093002	-29.097000	1008.695984	18.025000	7.765625	17.631250
-97.051003	-28.243000	1038.525024	31.307501	-10.793125	-10.325000
-6.161000	-30.561001	970.815002	13.899375	-19.971874	-15.111250
-38.186001	4.880000	993.751038	16.856874	-4.169375	7.371875
-123.830002	19.825001	1027.972046	24.801874	4.095000	12.013750
-137.615997	32.085999	1055.483032	4.707500	-4.147500	-3.434375
-117.547005	38.247002	1014.734985	-6.991250	-2.839375	-9.996875
-96.014000	4.514000	1015.101013	-0.980000	1.225000	-8.968750
-117.852005	49.288002	1025.104980	11.379375	-5.490625	-5.175625
-93.573997	77.775002	1035.597046	-1.719375	1.986250	-10.644375
-52.216000	37.820000	1026.141968	-4.589375	-2.288125	-8.693125
-66.734001	60.207001	1019.432007	-4.886875	3.994375	2.065000
-108.823997	18.726999	986.369995	-14.551250	2.699375	0.704375
-82.411003	29.707001	974.169983	-5.591250	-0.665000	0.778750
-83.142998	31.781000	971.059021	0.380625	-3.976875	5.499375
-98.087997	35.136002	1000.949036	14.008750	-7.035000	5.635000
-77.287003	31.781000	1014.734985	10.416875	-11.020625	2.423750
-142.313004	146.522003	1025.044067	-14.424375	-1.255625	2.743125
-49.410000	15.372000	972.705994	-17.850000	3.290000	-8.771875
-84.790001	0.122000	992.043030	-6.475000	-6.510000	1.413125
-103.761002	22.753000	1021.689026	-5.779375	-17.272499	1.968750
-198.250000	-7.686000	1008.208008	-4.952500	-17.867500	0.861875
-281.332001	-5.246000	1106.234985	-1.964375	-26.180000	-13.081250
-241.011002	-40.199001	1118.801025	-5.775000	-33.206249	-23.747499
-238.205002	15.311000	1112.578979	10.451875	-0.166250	-28.420000
-201.300003	22.204000	1029.436035	19.656876	-2.498125	-28.126875
-196.419998	29.585001	972.828003	19.696251	2.222500	-13.601875
-120.169998	14.518001	894.382019	27.251875	-14.586250	-2.878750
-69.723000	124.928001	947.330017	0.984375	-23.629375	11.081875
89.669998	62.830002	768.173035	-27.811874	-21.660625	20.050625
221.430008	149.938004	906.520996	-40.910625	-17.885000	12.560625
372.832001	-5.063000	914.634033	-32.510624	-5.455625	1.058750
444.201996	-5.185000	967.216003	-0.048125	19.967501	-2.878750
438.101990	46.909000	1026.874023	8.299375	-37.174374	-3.854375
438.712006	40.077000	1154.546997	-5.289375	-22.421875	5.512500
436.394012	-42.028999	1198.344971	-12.425000	19.355000	13.313125
407.358002	-53.436001	1018.395020	-27.076876	56.109375	8.846250
330.925018	-104.614998	972.889038	-27.243126	36.780624	10.850000
260.958008	-63.318001	1011.929016	-16.003750	15.470000	-5.547500
229.665009	-15.372000	1128.744019	29.001875	-3.653125	-4.558750
99.369003	-77.653000	974.353027	19.385626	26.495001	-0.183750
-1.403000	-86.742004	926.285034	9.590000	-8.758750	10.084375
-256.139008	-61.427002	896.822021	13.606250	-18.375000	14.861875
-209.046997	-24.766001	1036.451050	21.656250	-33.613125	1.618750
-292.433990	30.927000	1046.271973	24.053749	-17.613750	11.182500
-217.891998	40.748001	1010.526001	-4.926250	6.396250	3.425625
-232.104996	17.934000	1080.493042	-14.363125	3.206875	6.361250
-185.013000	-13.725000	1098.915039	-19.853750	15.513750	-5.508125
-105.896004	-17.629000	1027.911011	-20.527500	28.861876	-16.520000
-85.155998	-39.589001	1038.159058	-10.666250	3.500000	-13.488125
-23.363001	-36.417000	1050.114990	-2.572500	11.908750	-6.873125
-12.627000	-52.521000	1042.978027	-5.718125	11.790625	1.295000
-17.934000	-48.312000	1004.242981	1.509375	6.024375	7.857500
-23.668001	-63.744999	1001.803040	-1.141875	2.030000	5.993750
-16.348000	-66.551003	1013.575989	-0.962500	-1.421875	0.603750
-35.380001	-45.383999	1005.096985	3.626875	1.583750	-3.819375
-22.936001	-42.944000	1017.663025	1.198750	0.669375	-7.301875
-25.437000	-38.796001	1030.046021	3.154375	-1.548750	-6.588750
-6.893000	-31.354000	1014.369019	-0.953750	0.428750	-3.180625
-15.006001	-43.554001	985.699036	-6.833750	4.484375	0.376250
-17.568001	-70.638000	1007.171021	0.826875	-0.616875	3.780000
-20.801001	-67.954002	1011.746033	5.022500	-3.828125	3.530625
-27.694000	-51.240002	1026.935059	6.400625	-1.973125	7.389375
-28.914000	-31.476000	1031.815063	9.226875	-0.035000	9.358125
-25.864000	-19.703001	1010.648010	8.719375	1.820000	11.348750
-47.945999	-33.977001	1031.388062	3.705625	4.033750	14.879375
-40.687000	-37.820000	999.179993	-1.583750	10.132500	10.311875
-70.515999	-52.033001	1024.739014	-1.137500	-4.191250	7.008750
-111.020004	-38.430000	1034.743042	1.465625	-10.911250	6.282500
-188.977997	-14.640000	1072.624023	10.403750	-7.192500	4.095000
-223.503998	-2.806000	1086.837036	18.462500	-6.492500	-6.216875
-228.322998	67.649002	1023.213989	17.517500	6.636875	-8.417500
-208.803009	28.059999	1020.346985	2.043125	1.146250	-8.085000
-159.453995	22.143000	971.973999	-4.996250	5.363750	-11.305000
-122.000000	10.126000	1011.014038	0.179375	6.566875	-9.253125
-54.411999	1.037000	964.348999	21.284374	24.333750	-6.133750
-10.431000	-13.847000	966.362000	23.270624	24.097500	-6.921250
30.683001	28.243000	942.816040	3.600625	-6.273750	-1.137500
129.990997	24.583000	908.533997	-16.786875	-12.788125	-7.918750
233.934998	7.137000	935.191040	-12.945625	-12.057500	-14.975625
306.158997	73.871002	1018.090027	-0.691250	-12.031250	-19.617500
275.292999	89.609001	1045.540039	-16.353750	-15.006250	-20.763750
303.231018	79.543999	1109.162964	-25.554375	-5.298125	-16.581249
294.630005	1.586000	1124.412964	-18.676874	16.209375	-18.838751
200.873001	-13.176001	1009.062012	-11.165000	25.768749	-23.533125
198.494003	40.564999	1020.652039	-10.683750	22.312500	-16.196251
79.848999	-40.992001	1210.972046	-0.555625	17.101875	-0.901250
112.239998	-30.743999	1011.014038	2.646875	11.335625	0.577500
-5.063000	-47.824001	757.437012	-1.999375	7.415625	18.554375
-15.616000	-13.603000	995.276001	14.875000	6.002500	10.189375
-139.568008	20.069000	1015.223022	2.848125	-6.129375	5.582500
-204.594009	-64.598999	946.171021	-5.954375	-32.375000	4.891250
-230.275009	-71.003998	1013.393005	-22.299376	-24.071251	16.668751
-256.932007	-112.972000	1029.192017	-24.438749	1.758750	17.390625
-230.763000	-111.386002	975.939026	-7.161875	18.309376	17.727501
-202.703003	-73.749001	1011.624023	-2.095625	8.815625	8.575000
-185.684006	-60.329002	979.721008	6.028750	5.897500	9.436875
-150.425995	-50.751999	998.204041	8.365000	9.935625	3.570000
-108.153000	-53.802002	1051.640015	3.084375	-10.058125	3.574375
-90.707001	-62.037003	1056.031982	-4.598125	-6.125000	-3.360000
-67.404999	-54.411999	1008.879028	-2.896250	10.609375	-1.758750
-83.814003	-74.542000	1041.453003	1.137500	2.270625	1.089375
-56.547001	-65.758003	1020.468994	12.586875	-0.236250	2.047500
-53.558002	-38.307999	1020.346985	13.339375	2.502500	6.951875
-62.098000	-28.731001	1010.098999	7.945000	-1.929375	6.514375
-46.360001	-26.352001	1027.301025	4.926250	-4.751250	6.628125
-51.362000	-33.062000	1024.433960	1.548750	-3.478125	5.670000
-47.275002	-26.474001	990.945007	1.855000	1.907500	3.688125
-59.963001	-27.389000	1026.874023	0.472500	-2.931250	3.692500
-50.751999	-26.718000	1010.465027	-1.356250	-2.795625	1.706250
-57.706001	-30.012001	998.020996	-0.131250	0.109375	-0.043750
-88.266998	-28.426001	1006.195007	-4.208750	-4.751250	1.907500
-109.861000	-44.347000	1022.177002	-2.520000	-11.729375	5.503750
-96.380005	-30.316999	1029.009033	4.252500	-8.999375	9.668750
-94.611000	-25.620001	1021.627991	10.714375	4.593750	12.210625
-209.535004	-35.868000	1029.130981	-0.315000	4.375000	13.365625
-281.332001	-4.880000	1029.130981	-0.805000	2.113125	3.740625
-309.880005	-5.917000	1083.421021	-2.515625	-5.635000	5.285000
-245.708008	-1.342000	1086.348999	6.251875	-2.489375	5.110000
-212.707001	22.326000	1008.147034	5.070625	15.658125	12.166875
-168.298996	7.076000	933.239014	-5.989375	19.582500	11.335625
-135.785995	23.180000	892.429993	6.300000	-6.243125	10.718750
14.457000	-21.716000	875.593994	-8.351875	-17.513124	-3.666250
94.000999	10.248000	860.039001	4.580625	-6.243125	-18.830000
441.152008	45.993999	911.462036	21.616875	-10.749375	-35.905624
484.645020	-35.501999	1009.976990	18.125626	-35.450626	-30.415001
397.963989	116.875999	689.299988	7.441875	-62.203751	-24.438749
404.308014	5.734000	1297.836060	7.564375	-55.006874	0.459375
438.468018	-9.455000	1444.235962	-4.361875	-17.696875	6.868750
379.725006	-25.193001	861.929993	-9.152500	73.263748	11.453750
256.321991	-39.894001	928.176025	-7.214375	80.898125	12.236875
157.257996	53.802002	1008.695984	9.025625	17.688126	4.956875
143.167007	17.995001	1000.033997	12.075000	19.731251	7.288750
2.623000	62.646999	999.973022	1.251250	17.644375	-4.453750
7.320000	55.875999	951.905029	-12.315625	-13.794375	-4.611250
-119.743004	-33.855000	1043.343994	-33.880001	-24.145624	-13.755000
-132.919006	-15.189000	1013.148987	-36.452499	-13.680625	-11.471250
-248.941010	-16.104000	941.169006	-17.766874	7.354375	-8.496250
-270.291016	-76.372002	974.231018	-13.020000	12.569375	0.686875
-293.044006	-101.198997	1009.794006	-9.266250	6.969375	8.172500
-296.032990	-77.042999	1003.632996	8.981875	14.271250	7.805000
-257.786011	-77.287003	1042.489990	20.146875	14.774375	5.683125
-184.341995	-39.589001	1017.296997	11.475625	-5.455625	3.040625
-99.552002	-9.516000	1038.890991	5.407500	1.596875	8.763125
-67.771004	5.673000	1086.714966	3.066875	14.840000	7.809375
-73.931999	-2.562000	1050.907959	4.913125	8.929375	5.753125
-37.209999	-5.124000	945.255981	3.552500	9.226875	0.350000
-67.161003	-19.642000	1012.843994	4.165000	10.097500	-0.441875
-59.230999	-17.873001	973.987000	-1.509375	5.228125	-5.683125
-79.848999	-17.323999	991.859985	-1.041250	6.540625	-3.640000
-68.502998	-11.163000	1012.721985	1.067500	-1.067500	-2.708125
-50.202999	-5.307000	1031.998047	0.682500	3.158750	-1.741250
-58.987000	-17.446001	1015.893982	-3.386250	1.933750	0.590625
-60.451000	-23.241001	996.130005	-2.966250	0.542500	2.528750
-57.706001	-15.555000	983.320007	-2.331875	2.257500	0.791875
-72.346001	-15.921000	991.127991	-3.368750	-4.650625	-1.973125
-73.993004	-29.829000	1007.903015	-4.283125	-3.171875	-3.408125
-76.006004	-38.552002	1038.952026	-6.877500	-5.971875	-2.467500
-69.357002	-33.062000	1026.812988	-2.961875	-0.931875	-2.113125
-69.600998	-33.123001	1013.332031	3.412500	3.788750	-1.653750
-70.210999	-27.572001	1009.062012	1.251250	0.179375	-0.551250
-76.067001	-26.596001	1015.467041	3.723125	-0.883750	2.170000
-79.422005	-25.071001	1009.794006	2.931250	0.669375	3.106250
-127.612000	-42.639000	1023.458008	-0.131250	-1.898750	2.830625
-235.764999	-60.451000	1026.812988	-0.971250	-6.453125	4.725000
-313.722992	-35.929001	1094.583984	4.921875	-17.176250	-3.465000
-342.759003	16.714001	1105.686035	12.993750	-11.108125	-4.195625
-354.105011	-2.684000	1054.812012	5.302500	12.853750	3.075625
-331.962006	7.076000	974.231018	-2.773750	16.051874	13.912500
-318.054016	-6.588000	967.277039	8.649375	1.693125	14.096250
-249.856003	-17.873001	953.002991	3.456250	1.360625	5.591250
-47.458000	39.284000	864.004028	19.315624	7.691250	-5.026875
24.461000	11.468000	826.916016	18.405624	5.026875	-13.829375
239.608002	52.216000	1143.994019	41.833752	-44.156876	-20.527500
427.549011	96.196999	1133.441040	44.594376	-11.856250	-11.659375
319.700989	210.511002	1058.045044	-8.128750	23.235624	-22.898750
300.912994	204.106003	1047.614014	-40.075001	-20.724375	-23.743126
190.320007	30.683001	1168.271973	-35.415627	-30.988125	-7.214375
272.852997	-40.809002	1083.359985	-15.273125	12.490625	-7.918750
286.089996	13.176001	1010.953003	-1.960000	35.625626	-9.060625
238.083008	17.385000	964.958984	-15.973125	28.420000	-5.464375
160.186005	-29.463001	1043.588013	-0.643125	-10.653125	1.063125
177.205002	-92.659004	1085.250977	-4.016250	-30.480625	4.200000
156.037994	62.708000	960.750000	12.258750	0.358750	12.534375
82.959999	11.956000	966.850037	-14.844375	-9.209375	19.092501
-48.922001	-40.138000	981.978027	-18.077499	-16.226875	14.293125
-10.065001	55.327000	991.432983	-24.793125	-27.190624	1.369375
-88.754997	52.643002	1040.110962	-31.723125	-16.625000	7.700000
-234.910995	-18.056000	944.218994	-20.658751	29.036875	-16.043125
-232.410004	-24.827000	966.666992	-24.863125	-24.535000	-19.376875
-308.598999	-71.065002	966.544983	-9.677500	-6.916875	-21.380625
-241.438004	-104.188004	1072.197021	4.138750	-4.948125	-5.648125
-202.337006	-135.664001	1107.027954	-6.055000	0.831250	-2.791250
-154.574005	-148.412994	1065.120972	3.136875	9.633750	-6.020000
-78.263000	-118.766998	1052.859985	-2.620625	17.836876	-0.616875
-74.907997	-135.725006	1064.389038	-5.481875	16.620625	6.588750
-35.868000	-136.578995	1024.250977	9.261875	16.196251	8.220625
-41.723999	-97.539001	1023.458008	17.036249	11.501875	9.856875
-33.549999	-80.886002	970.692993	21.131250	15.395625	8.010625
-59.719002	-70.210999	997.716003	17.683750	6.654375	7.796250
-55.754002	-54.411999	996.434998	11.099375	0.511875	5.040000
-45.872002	-46.116001	993.629028	2.856875	1.925000	1.006250
-54.778000	-43.493000	1008.695984	-9.651250	4.156250	-2.139375
-46.726002	-30.316999	986.980042	-9.353750	-0.988750	0.231875
-57.827999	-62.037003	1028.582031	-9.030000	-0.476875	5.543125
-61.792999	-66.978004	1002.108032	-1.693125	3.180625	5.263125
-58.072002	-59.170002	1007.658997	-2.979375	-2.021250	4.077500
-51.179001	-61.854000	1031.510010	-4.637500	-2.804375	1.325625
-49.410000	-53.618999	1007.293030	-0.105000	-0.660625	1.723750
-52.704002	-65.026001	1011.380005	3.998750	-1.238125	0.848750
-51.484001	-63.744999	1010.281982	5.394375	-1.863750	1.977500
-55.388000	-61.732002	991.005981	2.231250	-0.135625	1.841875
-67.344002	-61.976002	1005.768005	3.198125	-4.816875	0.122500
-78.263000	-70.150002	1026.691040	0.761250	-9.375625	-0.415625
-179.339996	-87.656998	1046.088989	-2.327500	-6.234375	0.170625
-288.834991	-104.614998	1095.682007	4.882500	-6.028750	-0.227500
-321.408997	-64.843002	1069.390991	25.786249	4.086250	-5.639375
-277.489014	21.716000	971.303040	30.016874	13.776875	-2.843750
-262.971008	-6.405000	1044.197998	19.928125	13.238750	-5.162500
-217.587006	-27.877001	971.364014	2.896250	4.016250	-1.820000
-141.031998	-3.721000	1034.255005	-0.336875	8.413125	-0.446250
-55.327000	-0.976000	935.007996	5.446875	-0.380625	-3.876250
-29.951000	22.691999	964.593018	-1.570625	-7.280000	-8.999375
63.135002	79.056000	854.671021	-6.151250	2.423750	-5.810000
157.746002	10.858000	886.085999	-0.730625	-13.457500	-1.903125
334.218994	-4.148000	974.658020	-2.279375	-5.958750	-2.808750
448.227997	78.690002	997.655029	11.768750	-12.862500	-18.453751
323.178009	130.052002	1198.161987	32.195625	-43.413124	-3.517500
288.834991	32.390999	1295.274048	46.291874	-50.535625	9.358125
389.485016	100.223000	1166.380981	5.796875	11.160625	-4.195625
321.653015	88.023003	938.606995	-35.223125	65.830627	-9.025625
242.902008	27.328001	994.726990	-29.360624	46.532501	-2.970625
90.036003	80.336998	1066.157959	-12.674375	14.507500	-1.846250
150.487000	10.736000	998.570007	-29.120001	12.118750	0.984375
-16.165001	-54.290001	932.751038	-41.321877	-27.825001	-8.920625
24.705000	-54.411999	1128.438965	-23.905001	-82.398750	-27.164375
25.132000	-20.557001	1074.576050	-4.742500	-52.355625	-12.040000
-52.094002	-60.268002	982.527039	-6.641250	40.376877	3.578750
-179.462006	-119.011002	886.390991	2.922500	41.685001	6.965000
-211.242996	-73.626999	952.880981	-20.956249	5.411875	2.498125
-233.874008	-124.318001	924.393982	-53.764374	-1.666875	12.166875
-257.602997	-176.229004	976.915039	-39.401249	22.404375	0.630000
-248.880005	-189.466003	913.109009	-21.157499	11.383750	-4.291875
-216.123001	-201.971008	958.737000	9.638125	5.866875	-8.448125
-98.820000	-190.442001	1088.362061	38.430000	15.435000	-7.376250
-35.990002	-162.382004	1133.380005	27.930000	5.748750	-4.121250
-21.167000	-78.323997	1021.140015	15.365000	28.927500	5.302500
-58.255001	-69.052002	1010.221008	-1.907500	22.732500	12.958750
-68.381004	-68.137001	998.143005	2.419375	11.243750	15.561875
-79.666000	-93.818001	1029.680054	0.350000	8.793750	15.925000
-83.204002	-86.253998	1064.389038	5.000625	-5.355000	15.159375
-89.731003	-74.603004	1022.238037	16.743126	13.566875	12.127500
-92.598000	-50.202999	973.804016	15.163750	4.331250	5.070625
-92.842003	-46.299000	972.096008	5.490625	3.281250	0.542500
-93.147003	-48.494999	1001.681030	-0.599375	4.252500	0.542500
-93.635002	-64.538002	1005.950989	-0.638750	0.704375	1.544375
-110.288002	-63.440002	1011.257996	10.526250	1.955625	2.030000
-104.676003	-47.519001	1037.671021	10.482500	-6.181875	0.376250
-94.916000	-33.549999	1025.044067	2.371250	1.439375	-1.190000
-115.534004	-33.244999	1011.562988	2.559375	6.352500	-1.583750
-88.145004	-26.901001	1011.929016	-1.045625	-3.666250	0.551250
-98.087997	-35.380001	1027.484009	-3.049375	-0.411250	4.375000
-95.586998	-39.589001	1011.319031	1.920625	5.582500	5.788125
-92.354004	-38.979000	995.398010	1.513750	1.146250	4.541250
-86.803001	-39.528000	996.007996	-0.529375	-1.658125	3.771250
-101.992004	-35.990002	1006.255981	0.126875	1.649375	2.261875
-98.454002	-36.783001	1011.257996	0.035000	-0.161875	1.474375
-108.823997	-28.243000	988.992981	-3.924375	0.245000	2.091250
-121.389999	-25.986000	992.531006	-5.477500	2.310000	2.804375
-135.115005	-48.983002	1000.643982	-8.111250	0.188125	3.377500
-114.741005	-31.781000	994.971008	-2.030000	2.874375	6.798750
-107.360001	-47.153000	1018.028992	1.846250	1.045625	12.258750
-90.279999	-30.927000	1007.536987	4.908750	4.571875	18.865000
-56.424999	-26.657000	1010.892029	8.662500	-2.655625	18.335625
-92.475998	-30.500000	1028.826050	9.555000	-10.342500	14.975625
-94.367004	-27.389000	1006.500000	8.343125	-24.184999	3.530625
-161.772003	-21.289000	1053.531006	7.100625	-17.688126	-7.953750
-277.794006	9.272000	1020.468994	7.249375	-21.713125	-23.590000
-371.856018	13.420000	1020.346985	12.490625	-38.570000	-27.282499
-397.720001	2.440000	1067.865967	24.674999	-35.415627	-26.429375
-288.529999	6.222000	1073.416992	20.965000	-3.583125	-21.791876
-169.701996	9.150001	1019.919983	10.565625	12.731250	-8.806875
-0.854000	16.165001	934.642029	4.974375	16.883125	-7.945000
194.041000	25.620001	951.478027	-24.351250	24.425625	-3.163125
219.904999	-31.171000	1001.192993	-23.375626	-10.556875	-19.424999
367.037018	82.411003	1086.837036	-5.543125	5.486250	-15.855000
322.324005	105.286003	1042.368042	17.036249	-8.273125	-5.232500
254.126007	28.609001	1046.638062	15.141875	-5.394375	6.426875
260.408997	97.599998	1068.536987	8.601250	-14.573125	3.832500
312.808014	94.916000	1015.650024	-5.390000	-9.051875	15.828750
279.380005	90.767998	985.577026	-17.430000	20.868750	13.938750
137.677002	17.323999	952.880981	-11.996250	16.331875	15.605625
212.279999	24.095001	1079.822021	-14.577500	-4.405625	3.688125
121.146004	93.330002	1017.296997	-2.445625	8.216250	10.360000
144.143005	-7.747000	965.507996	-14.875000	28.730625	4.466875
-163.479996	10.126000	932.385010	-7.713125	23.331875	-1.627500
-231.251007	-54.534000	862.174011	5.565000	-34.733124	-8.522500
-280.234009	-4.697000	914.817017	3.395000	-62.951874	-8.916250
-243.695007	23.851000	1089.399048	9.008125	-25.173750	-5.989375
-144.447998	25.010000	1057.801025	1.802500	18.834375	14.087500
-154.513000	29.463001	1131.183960	28.052500	54.232498	25.020624
-223.992004	130.600998	1076.588989	3.010000	54.162498	22.959999
-141.947006	28.059999	1070.610962	-44.677502	27.960625	-11.458125
-70.882004	-89.487000	1039.317993	-15.338750	20.768126	-7.568750
-78.507004	-72.590004	996.557007	-3.758125	20.811874	1.369375
-113.947998	-67.161003	1036.145996	9.668750	17.906876	3.473750
-128.587997	27.084000	1037.305054	-5.630625	0.301875	4.996250
-137.188995	37.820000	1006.622009	-3.508750	9.384375	-0.608125
-149.815994	34.342999	1028.459961	2.235625	3.920000	-9.209375
-129.807999	20.374001	1024.312012	-0.796250	3.075625	-19.385626
-103.151001	-52.338001	997.593994	0.358750	-1.850625	-10.150000
-122.487999	-70.272003	977.525024	-9.371250	0.980000	-4.213125
-137.615997	-48.190002	989.054016	-1.553125	5.954375	7.507500
-142.984009	-24.705000	983.075989	5.298125	-11.265625	10.189375
-129.320007	23.363001	1033.218018	14.056875	-8.995000	8.627500
-151.889999	34.342999	1157.841064	-32.410000	-22.868126	8.220625
-45.018002	-77.653000	985.333008	-42.004375	14.673750	7.188125
-159.576004	-85.278000	952.880981	-16.358126	6.177500	16.983749
-81.313004	-33.549999	952.332031	7.280000	-11.821250	-0.564375
-90.036003	-35.319000	1017.296997	13.706875	-9.800000	7.861875
-91.134003	-39.223000	1042.916992	16.008125	-2.646875	3.893750
-56.119999	-6.832000	1037.488037	10.513125	0.315000	0.765625
-0.244000	-24.278000	1087.385986	-1.863750	1.658125	0.463750
44.347000	-41.968002	1133.868042	-10.845625	10.788750	14.818125
105.408005	-52.338001	1051.151978	-20.711250	17.718750	15.942500
72.101997	-73.139000	984.967041	-24.705626	1.115625	25.423124
47.214001	-71.796997	888.160034	0.065625	11.055625	17.184999
57.950001	-27.205999	832.588989	6.418125	-8.146250	17.250626
-15.616000	-4.087000	970.570984	-7.752500	-22.951250	11.746875
33.855000	-64.538002	1013.942017	-27.256250	-35.319374	-0.708750
58.621002	-74.847000	972.523010	-28.376249	-22.128750	-0.844375
22.875000	-159.210007	959.468994	-37.839375	-8.811250	-15.610000
-45.323002	-151.889999	1030.534058	-17.749374	-16.804375	-18.191250
-162.992004	-152.622009	1046.150024	-12.521250	-18.046875	-23.940001
-252.540009	-213.134003	1000.583008	19.285000	-12.009375	-1.194375
-447.984009	-83.752998	1051.701050	52.771252	25.252501	9.874375
-456.036011	-63.500999	1100.013062	47.372501	-2.537500	14.227500
-349.041992	-31.171000	1014.002991	11.554375	-47.451248	5.608750
-320.860016	-20.374001	1070.854980	4.046875	-13.295625	-3.893750
-303.291992	-56.059002	1101.110962	-10.801875	-19.530001	-6.632500
-268.888000	-50.935001	1022.908997	-18.751249	-5.083750	-5.411875
-192.820999	-73.688004	956.358032	-9.800000	12.481875	-9.821875
-127.001999	-101.077003	975.329041	3.854375	37.366875	-14.179375
-154.574005	-62.769001	965.264038	38.023125	62.037498	-0.686875
-73.566002	-9.394000	916.525024	26.442499	21.310625	-13.230000
37.271000	-71.858002	1079.456055	14.363125	-15.614375	-15.456875
39.040001	11.956000	986.858032	6.483750	18.834375	5.643750
170.007004	-20.496000	1050.420044	-18.611250	7.940625	8.168125
166.774002	-49.837002	1113.799072	-13.103125	-18.965626	3.828125
194.589996	-44.834999	1097.634033	-13.676250	-10.517500	-0.901250
146.339005	-45.506001	1052.372070	2.065000	-10.062500	-4.904375
116.693001	-27.328001	1035.780029	-8.146250	-7.223125	-12.061875
61.732002	-30.866001	990.030029	-4.208750	-3.548125	-12.359375
2.379000	-36.660999	1009.306030	1.181250	-4.733750	-8.964375
-5.978000	-46.360001	1004.853027	1.938125	-7.647500	-7.818125
-9.760000	-38.857002	1022.543030	7.581875	-8.662500	-7.700000
-4.087000	-18.910000	1042.855957	6.431250	4.655000	-0.367500
-0.854000	-20.252001	1015.588989	-0.113750	5.530000	8.960000
-32.574001	-31.964001	1006.195007	1.973125	4.869375	10.473750
-32.085999	-41.236000	1011.684998	1.207500	2.200625	4.116875
-47.885002	-35.746002	1012.783020	3.570000	2.953125	-0.945000
-36.050999	-36.539001	1005.341003	5.355000	1.321250	-4.681250
-31.049000	-26.962000	1024.921997	4.344375	-0.441875	-4.278750
-28.182001	-16.531000	1032.973999	0.043750	6.562500	-4.003125
-42.212002	-16.775000	1018.578003	-4.935000	4.493125	-1.561875
-46.177002	-30.012001	1011.807007	-3.377500	2.428125	0.463750
-42.761002	-36.722000	1033.949951	-2.471875	2.782500	1.093750
-49.410000	-42.456001	1007.415039	-2.275000	1.645000	0.476875
-41.418999	-30.500000	1009.916016	1.789375	2.830625	0.805000
-35.806999	-20.923000	1008.635010	3.937500	3.180625	2.695000
-49.348999	-30.622000	1008.330017	4.042500	1.592500	2.143750
-41.785000	-15.128000	1022.054993	8.400000	-0.078750	5.131875
-46.848000	-10.858000	1030.350952	5.696250	0.770000	2.975000
-47.396999	-11.163000	1010.343018	2.353750	0.332500	-0.958125
-50.325001	-9.821000	990.884033	-5.341875	3.364375	-1.977500
-47.214001	-24.095001	988.627014	-10.202500	-0.905625	-1.995000
-81.008003	46.116001	1021.689026	-3.561250	2.043125	-11.580625
-26.230000	-44.347000	1061.156006	6.803125	8.561875	-2.708125
-4.819000	9.028000	1044.869019	0.170625	-4.799375	-2.576875
110.166000	-43.005001	1096.414062	1.190000	-4.208750	6.365625
156.281998	10.797000	1115.994995	-8.312500	-19.442499	13.181875
147.925003	45.079002	960.750000	2.419375	-11.873750	23.996876
124.806000	-5.795000	1002.291016	10.561250	14.354375	30.874374
80.641998	-32.574001	927.444031	4.760000	-15.719375	18.948126
154.085999	1.647000	1013.515015	20.531876	-42.984375	22.338751
102.906998	-14.579000	1033.462036	10.661875	-28.035000	35.581875
19.520000	-44.347000	1015.772034	-5.223750	14.818125	29.456875
-39.284000	-12.383000	1015.772034	-15.281875	-5.175625	10.810625
-21.837999	-55.875999	1033.096069	-28.748125	-14.551250	-13.711250
-41.297001	-79.788002	1019.554016	-28.581875	-12.678750	-15.159375
-67.466003	-131.272003	990.945007	-21.726250	2.708125	-21.078751
-195.078003	-100.467003	986.796997	-0.743750	10.924375	-25.650625
-210.266998	-29.463001	985.393982	-7.135625	16.975000	-37.799999
-183.792999	-40.748001	1023.031006	-11.064375	0.962500	-24.045000
-243.268005	-29.280001	1039.989014	1.120000	9.821875	-7.240625
-322.324005	-13.115000	1009.122986	14.818125	5.473125	-1.715000
-322.751007	-30.743999	1067.317017	17.333750	9.003750	-2.695000
-300.669006	-15.860001	989.054016	18.147499	9.314375	0.266875
-174.337997	-73.383003	930.067017	8.697500	13.479375	5.035625
-168.542999	-75.884003	1024.556030	4.300625	43.474377	23.913750
-176.350998	-29.036001	1036.634033	-16.034374	19.936874	29.868126
-145.240997	-107.177002	957.944031	-1.255625	26.101250	16.148125
-94.183998	-47.458000	1047.187012	34.129375	38.696877	-0.315000
-109.373001	6.222000	1070.306030	25.563126	28.853125	-9.852500
-7.564000	3.965000	1016.504028	16.073750	-21.004375	-16.629375
56.608002	32.818001	1003.999023	13.422500	-5.613125	-11.138750
107.299004	61.549000	996.434998	15.811250	0.004375	-3.206875
62.403000	74.786003	1114.286987	-6.951875	-13.982500	17.228750
80.764000	9.760000	1037.305054	-13.212500	-10.150000	8.662500
78.445999	1.647000	1058.411011	-13.991250	4.930625	1.295000
58.499001	7.137000	1032.608032	-15.820000	-3.154375	2.170000
-11.102000	-4.026000	1037.671021	-5.245625	-19.766251	7.485625
13.603000	-18.666000	996.862000	-5.621875	-29.793751	0.774375
6.344000	-22.936001	1002.840027	-3.648750	5.180000	-0.266875
-28.792000	-16.409000	1016.442993	1.513750	-6.597500	-7.647500
-27.023001	2.379000	1020.773987	-3.145625	-4.230625	-12.210625
-17.934000	-28.487000	1000.095032	0.568750	-3.443125	-4.178125
-34.282001	-11.895000	1018.944031	-2.104375	-3.723125	-2.506875
-40.015999	-10.736000	1019.554016	-1.496250	-1.163750	-0.170625
-54.900002	-12.810000	1004.853027	0.546875	3.740625	0.078750
-31.171000	-9.577000	1006.439026	3.500000	3.233125	0.441875
-49.715000	-19.825001	1014.613037	-2.620625	-2.056250	0.853125
-26.596001	-7.564000	1031.448975	1.575000	-5.783750	-0.573125
-32.513000	-2.074000	1019.249023	4.720625	2.581250	0.245000
-24.400000	-0.793000	1019.981018	2.782500	1.019375	0.048125
-41.053001	-1.647000	1020.041992	3.863125	1.067500	-1.863750
-31.964001	11.529000	1025.531982	2.751875	0.126875	-4.375000
-28.059999	4.026000	1016.504028	-1.802500	2.108750	-2.104375
-22.509001	5.368000	1016.260010	-1.001875	2.900625	-0.223125
-27.572001	3.477000	1019.798035	-1.855000	6.518750	0.888125
30.866001	-2.196000	1056.703003	-3.854375	2.480625	5.018125
84.607002	5.612000	1084.152954	-9.445625	1.513750	3.500000
153.658997	-20.252001	1098.671021	-10.714375	-1.408750	0.420000
197.395996	-34.160000	1008.208008	-12.363750	12.866875	0.389375
198.798996	-49.471001	962.153015	-19.464375	0.472500	-1.575000
144.082001	-84.057999	1002.108032	-30.887501	-10.679375	5.888750
51.118000	-106.139999	1008.025024	-21.494375	-7.481250	3.360000
19.459000	-102.113998	1066.218994	-8.268750	6.361250	-5.127500
-21.837999	-87.047005	1010.770020	-7.721875	5.696250	-12.040000
-8.296000	-105.347000	972.401001	3.316250	-8.308125	-7.196875
-138.897003	-92.537003	938.729004	1.474375	-19.136250	17.858749
-86.315002	-127.368004	982.343994	15.023750	-9.598750	24.219999
-169.091995	-19.886000	990.273987	11.375000	-5.425000	20.776875
-242.109009	11.285000	964.715027	10.220000	0.616875	3.858750
-216.184006	2.928000	983.015015	16.511250	6.212500	-14.236250
-301.035004	41.174999	1047.552979	11.213125	0.883750	-40.171249
-279.746002	6.344000	1080.797974	6.002500	-1.028125	-26.809999
-334.829010	12.078000	1125.937988	1.715000	-1.964375	2.279375
-303.963013	12.627000	1047.248047	8.430625	-1.990625	19.031250
-260.104004	-9.028000	1009.244995	19.464375	5.556250	21.170626
-258.822998	4.270000	1016.138000	18.838751	4.685625	17.902500
-186.050003	-38.491001	971.364014	26.311251	-7.280000	14.962500
-111.630005	-23.790001	882.731018	18.497499	26.455626	14.118125
-134.382996	49.410000	1011.135986	3.858750	56.721874	4.405625
-92.110001	39.894001	1075.734985	-38.482498	-8.863750	-14.354375
21.289000	-24.521999	1000.888000	-46.169376	-33.123123	-31.045000
257.114990	-132.186996	1008.574036	-2.445625	-18.108126	-26.809999
152.134003	-21.899000	1015.955017	34.593124	-3.276875	-16.506874
196.908005	19.764000	1032.852051	25.773125	-5.110000	-19.936874
186.660004	53.985001	1057.495972	21.686874	-11.668125	-10.482500
170.861008	94.245003	1062.071045	-0.463750	-4.606875	-5.197500
123.403000	58.011002	1059.570068	-22.780624	5.403125	0.428750
85.705002	51.545002	1043.953979	-25.593750	4.274375	4.825625
21.410999	20.130001	1034.072021	-11.256875	9.012500	4.786250
16.836000	7.686000	986.980042	2.209375	4.620000	-2.668750
-3.050000	20.374001	989.541992	3.255000	1.627500	-5.468750
-1.403000	19.153999	1014.125000	6.409375	-3.928750	-1.128750
-7.564000	13.115000	1010.708984	8.964375	-4.646250	5.096875
-45.688999	18.726999	1021.689026	3.526250	-1.435000	5.495000
-28.487000	6.100000	1023.031006	1.715000	-0.945000	1.732500
-33.611000	17.323999	1000.400024	-5.110000	-0.831250	-4.326875
-25.132000	9.150001	1036.451050	-8.015000	-3.500000	-8.693125
-13.969000	11.468000	1018.028992	-6.444375	-4.261250	-9.830625
-8.906000	1.342000	1024.494995	-7.148750	-3.626875	-4.243750
-10.614000	-2.684000	1033.279053	-0.713125	-5.823125	0.686875
-22.326000	-26.291000	1008.757019	-1.540000	1.426250	3.377500
-21.410999	-10.248000	1026.935059	2.003750	2.485000	2.887500
14.091001	-5.307000	1008.757019	1.846250	2.900625	-0.319375
45.628002	-1.647000	1023.397034	0.341250	10.613750	-3.224375
122.915001	-3.660000	1048.773071	-7.223125	10.447500	-3.180625
111.691002	5.795000	1079.089966	-16.804375	20.628124	3.648750
100.405998	4.209000	1084.640991	-11.379375	16.874374	8.176875
118.584000	-18.910000	1062.315063	-12.950000	15.176875	12.140625
123.159004	-50.081001	1209.874023	-8.850625	3.941875	3.526250
89.364998	-18.605000	824.720032	-2.314375	0.835625	-0.866250
77.958000	-81.679001	994.605042	-1.890000	-1.623125	0.822500
-30.561001	-52.216000	990.884033	3.005625	-6.776875	-7.481250
-16.287001	-3.843000	954.772034	2.800000	-9.310000	-13.685000
9.333000	-25.802999	943.121033	-5.070625	-17.298750	-12.503750
-0.183000	-50.569000	1021.079041	-7.945000	-27.912500	1.653750
-17.750999	-90.889999	956.174988	-15.750000	-16.546249	18.628750
-171.044006	-99.307999	937.997009	-1.973125	8.946875	22.911875
-359.838989	-28.670000	979.843018	11.576250	3.753750	-0.083125
-356.606018	20.862000	1061.644043	25.685625	9.226875	-11.361875
-429.683990	63.562000	1115.079956	29.850624	16.401875	-12.525625
-406.687012	34.282001	1163.331055	14.800625	-21.660625	-2.148125
-349.225006	15.372000	1118.495972	5.280625	-22.045626	0.249375
-290.420990	2.501000	1070.610962	2.222500	0.367500	2.585625
-302.132996	19.276001	1066.645996	-12.932500	0.686875	1.054375
-210.084000	-1.342000	1030.838989	-28.787500	-21.914375	-6.628125
-77.530998	-62.890999	1024.250977	-14.354375	0.026250	-3.635625
-32.574001	-53.741001	988.078003	-3.141250	21.035000	5.009375
-13.237000	-1.952000	926.285034	-11.305000	14.083125	4.904375
35.075001	-41.174999	909.692993	-12.901875	19.083750	-4.125625
60.633999	-12.810000	980.453003	-23.266251	5.792500	-11.515000
162.626007	-65.209000	850.218018	-4.296250	-1.885625	-24.451876
239.608002	-27.999001	871.140991	8.986250	-4.143125	-31.184999
293.898010	-83.447998	1058.838013	28.126875	18.195625	-5.801250
200.263000	-27.511000	1111.786011	27.663124	11.943750	9.769375
148.839996	-45.567001	1132.221069	20.908125	-3.994375	14.437500
106.872002	-6.100000	1108.735962	1.907500	6.545000	19.893126
22.570000	-35.136002	1070.183960	-5.040000	9.454375	25.593750
-48.983002	-17.934000	1012.234009	2.629375	7.140000	16.170000
-33.916000	-3.843000	965.203003	6.895000	7.840000	9.371250
-55.144001	7.076000	989.481018	4.593750	1.938125	5.162500
-53.192001	16.226000	1022.299011	5.547500	-8.570625	0.498750
-41.358002	29.889999	999.302002	6.466250	0.809375	1.106875
-42.334000	10.858000	995.337036	4.987500	7.634375	-2.852500
-46.055000	29.829000	1030.167969	5.814375	10.136875	-1.220625
-65.879997	15.433001	1019.066040	2.765000	0.083125	-4.160625
-46.482002	6.100000	1016.015991	-4.033750	-2.205000	-5.945625
-58.804001	22.326000	1036.451050	-8.903125	-3.482500	-5.145000
-49.105000	17.202000	1015.528015	-7.459375	-4.042500	-5.945625
-41.236000	15.372000	1008.635010	-5.551875	2.025625	-3.443125
-47.336002	4.636000	1021.384033	-2.279375	-0.643125	-1.995000
-53.131001	-1.098000	1016.442993	0.879375	-0.205625	-1.365000
-62.098000	-4.880000	1023.213989	1.977500	-0.262500	-0.096250
-55.510002	12.749001	1022.665039	1.701875	-0.927500	-2.174375
-50.935001	9.516000	1024.800049	-0.866250	-3.193750	-4.628750
-53.618999	12.139000	1003.267029	-1.321250	0.293125	-4.615625
-43.554001	25.620001	995.031982	-1.903125	-5.551875	-1.163750
-65.696999	-5.063000	1012.234009	0.070000	-5.429375	4.856250
-99.307999	-3.172000	1062.985962	2.078125	-3.841250	5.639375
-230.031006	-23.118999	1071.037964	2.638125	5.551875	2.996875
-309.330994	9.638000	1081.713013	-0.122500	-4.217500	-5.158125
-339.648010	-3.904000	1105.930054	-4.585000	-8.981875	-12.166875
-278.953003	-15.128000	1094.279053	0.091875	-13.571250	-12.451250
-201.238998	-18.605000	1033.035034	-6.269375	27.238750	-12.998125
-106.994003	-15.616000	1001.742004	7.717500	33.547501	-15.526875
-76.127998	-3.477000	1013.027039	-7.809375	27.378750	-12.110000
-43.493000	26.657000	980.941040	-19.630625	33.013748	-6.982500
-41.236000	76.006004	924.272034	2.170000	28.245001	-3.972500
33.244999	91.134003	850.340027	-9.174375	25.549999	-1.098125
67.099998	34.647999	845.338013	-31.543751	13.632500	-10.876250
180.255005	-14.396000	1001.010010	-44.134998	13.986875	-31.425625
108.458000	-103.516998	1105.076050	-30.502501	-12.823125	-29.785000
93.269005	-108.458000	1160.342041	-2.948750	-25.318125	-14.774375
106.932999	-125.172005	1125.510986	12.578125	-6.461875	1.264375
120.048004	-164.882996	1115.385010	30.804375	1.881250	8.386875
194.712006	-74.969002	1092.875977	44.695000	17.622499	6.461875
77.714005	-56.791000	1033.583984	34.724377	4.873750	-1.452500
71.736000	-46.970001	1076.040039	3.163125	-15.474375	-0.380625
8.906000	-73.078003	964.776001	-21.931875	-31.263750	-14.218750
-25.375999	2.928000	920.367981	-21.336876	-34.116249	-22.356251
-75.762001	-56.181000	880.169006	-28.844376	-39.882500	-34.908127
-131.455002	6.771000	921.039001	-27.212500	-34.378750	-35.323750
-220.332001	-38.368999	950.807007	-19.578125	-36.150623	0.113750
-123.403000	-51.423000	1067.255981	8.159375	-30.375626	27.264999
-172.874008	-87.230003	1149.728027	46.488750	-15.058750	40.783749
-159.453995	-54.839001	1050.480957	38.543751	8.281875	41.422501
-121.267998	-21.228001	1061.217041	18.803749	11.908750	34.461876
-123.769005	-44.652000	1045.784058	7.310625	9.366875	14.686875
-98.881004	-31.659000	1045.967041	-4.646250	13.278125	-11.939375
-50.751999	-47.702000	1005.463013	-5.026875	7.511875	-21.892500
-13.786000	-27.267000	990.579041	-4.497500	6.702500	-23.905001
4.758000	-34.587002	994.971008	-4.029375	-3.010000	-17.810625
8.357000	-12.871000	1003.999023	-9.633750	-6.606250	-17.950624
-4.392000	-29.463001	997.838013	-5.530000	-5.569375	-9.388750
3.416000	-57.218002	1024.921997	-2.576875	-1.093750	-5.407500
-9.150001	19.398001	1060.911987	12.346250	12.140625	15.238125
1.220000	-7.076000	997.350037	16.288124	6.151250	14.078750
7.076000	6.832000	1025.531982	12.713750	3.613750	5.613125
5.307000	4.514000	1008.208008	10.136875	-5.740000	1.855000
0.488000	7.259000	1017.906982	3.990000	-2.712500	-0.249375
-7.137000	11.468000	1009.489014	2.410625	2.231250	0.507500
-7.076000	5.551000	1027.422974	5.053125	-5.009375	-0.118125
9.394000	15.189000	1031.510010	4.952500	0.980000	-1.115625
2.135000	19.886000	1027.545044	3.727500	-3.119375	-0.586250
3.599000	21.837999	1005.341003	1.596875	3.701250	-3.189375
3.172000	17.873001	1009.733032	-3.670625	3.430000	-3.333750
-3.660000	16.348000	1006.866028	-4.808125	0.249375	-3.622500
-3.050000	17.385000	1005.890015	-2.419375	-0.350000	-2.493750
-8.479000	9.333000	1021.567017	-0.962500	0.332500	-1.601250
-16.836000	19.520000	1006.072998	4.274375	1.036875	0.621250
-14.701000	22.875000	1019.127014	5.070625	-5.783750	0.988750
-18.056000	34.526001	1021.018005	6.317500	-0.118125	2.804375
-20.130001	31.171000	1027.422974	4.576250	-3.771250	3.906875
-37.698002	24.400000	1042.062988	-2.051875	3.141250	3.416875
-120.109001	22.264999	1017.174988	-7.161875	-4.195625	1.303750
-171.471008	19.093000	1023.458008	-9.961875	2.725625	-5.792500
-213.682999	8.052000	1020.346985	-15.010625	10.915625	-12.674375
-171.897995	-14.152000	1026.081055	-19.035625	14.840000	-20.256250
-117.973999	11.163000	1083.604004	-15.203125	14.105000	-15.321250
-105.591003	-37.088001	1040.233032	2.961875	7.131250	3.596250
-84.180000	-62.464001	1002.778992	6.475000	23.896250	-13.361250
215.695999	204.350006	968.130981	14.774375	29.850624	0.656250
-17.019001	25.864000	995.276001	13.908125	0.441875	8.636250
14.457000	26.657000	983.380981	10.202500	27.632500	24.775625
19.459000	-1.586000	949.587036	3.132500	22.006250	33.845001
53.131001	38.917999	1022.238037	-11.991875	6.426875	27.702499
123.220001	-11.041000	983.807983	-21.516251	1.356250	16.660000
140.421997	-3.660000	1076.650024	-30.126249	-14.494375	0.402500
146.705002	-40.504002	1101.598999	-29.833124	-32.755627	-9.988125
203.984009	-58.804001	1106.600952	-2.616250	-18.615625	-12.254375
230.397003	-34.831001	1120.203979	7.796250	-10.342500	-8.010625
186.964996	-62.281002	992.958008	11.182500	8.750000	-1.920625
156.709000	-39.833000	966.666992	9.388750	10.377500	-3.915625
100.589005	9.028000	932.385010	5.306875	5.753125	0.800625
87.473999	-38.917999	1001.986023	0.542500	-1.080625	9.476250
22.631001	36.600002	1016.626038	2.069375	-0.459375	16.073750
22.387001	-31.232000	904.447021	-11.449375	-5.967500	35.826874
-123.403000	-33.916000	963.861023	-1.745625	-12.521250	36.592499
-146.033997	-27.205999	1026.447021	-17.456249	3.023125	8.942500
-161.833008	-54.290001	982.466003	-27.225624	-17.740625	-8.706250
-194.102005	-19.153999	1034.682007	-21.218750	-11.742500	-14.293125
-230.824005	-104.309998	1014.491028	-13.916875	22.605625	-11.576250
-217.891998	-45.567001	1013.210022	5.040000	13.794375	-14.704375
-162.199005	-79.910004	965.630005	10.381875	-0.980000	-11.882500
-151.402008	-44.834999	1052.494019	20.671875	11.576250	-4.948125
-155.733002	-38.674000	1087.508057	16.467501	15.015000	-1.596875
-99.247002	-51.300999	999.790039	1.045625	-30.205000	0.656250
-47.519001	-59.170002	1033.949951	2.686250	-24.911249	0.035000
-2.013000	-34.892002	1048.406982	-3.014375	-5.359375	-2.905000
-17.934000	-51.179001	985.210999	-7.612500	3.211250	0.052500
-50.020000	-49.471001	990.213013	1.028125	1.456875	1.067500
-20.313000	-47.945999	1018.333984	10.001250	-6.155625	2.283750
-26.901001	-45.201000	1024.312012	13.755000	-7.721875	6.571250
-26.108000	-28.914000	1025.166016	6.203750	-4.322500	7.546875
-26.840000	-28.792000	1019.127014	0.218750	-1.251250	7.481250
-24.400000	-34.038002	1006.012024	1.343125	0.074375	5.845000
-21.655001	-20.862000	1014.552002	3.395000	-0.455000	4.112500
-12.688000	-10.553000	1011.014038	5.258750	-4.003125	6.370000
-25.986000	-0.671000	1034.193970	11.961250	-4.326875	10.780000
-11.773000	-11.346000	1019.309998	12.770625	-2.419375	15.435000
-32.635002	5.368000	1032.729980	14.109375	-2.983750	21.065624
-32.390999	17.995001	1012.356018	10.259375	2.721250	20.724375
-58.499001	24.034000	1031.144043	5.460000	1.238125	18.090626
-66.124001	34.221001	1031.265991	3.648750	3.403750	10.976875
-114.375000	63.867001	1014.002991	3.622500	4.379375	5.971875
-170.434006	63.623001	1011.502014	-1.579375	-2.848125	-1.159375
-179.462006	35.624001	1056.093018	-7.638750	-5.263125	-1.614375
-150.487000	3.721000	1061.704956	9.629375	-1.579375	-2.314375
-121.389999	50.202999	1051.945068	17.530624	15.553125	-1.811250
-123.037003	33.489002	1003.694031	18.663750	17.416876	-6.873125
-81.434998	96.624001	999.973022	18.755625	17.198126	-1.916250
-61.000000	67.344002	872.604980	-0.161875	5.928125	-5.525625
11.834001	93.757004	947.025024	5.175625	-8.592500	-7.822500
14.762000	83.021004	942.389038	-12.390000	0.459375	-2.541875
127.794998	58.560001	938.302002	-20.212500	23.848125	-6.330625
180.987000	70.333000	983.807983	-33.263126	9.996875	-5.026875
225.516998	-11.529000	1040.416016	-25.738125	-0.835625	-21.008751
306.708008	-18.422001	1058.045044	-2.804375	-2.616250	-13.737500
254.979996	-22.814001	1106.052002	-3.294375	1.146250	-7.415625
270.230011	-47.336002	1132.526001	-2.476250	-5.556250	-10.675000
306.463989	-39.894001	1189.317017	-10.801875	19.985001	-11.576250
197.029999	-51.728001	992.470032	-1.347500	5.827500	-19.779375
210.572006	-17.507000	999.363037	9.388750	4.978750	-10.941875
151.768005	51.240002	1052.432983	7.336875	-13.772500	-2.581250
80.581001	-38.003002	994.971008	9.948750	-34.111874	36.509377
-11.956000	24.583000	934.215027	10.941875	-6.562500	19.162500
-67.832001	15.128000	1045.417969	-7.113750	-24.740625	6.798750
-93.025002	24.948999	994.117004	-9.607500	-16.100000	-11.449375
-159.453995	9.333000	1007.658997	4.248125	18.812500	-13.991250
-225.029007	55.875999	899.627991	1.627500	38.460625	-15.382500
-265.777008	49.532001	970.815002	-12.753125	8.561875	-6.479375
-282.247009	16.896999	1128.561035	-12.372500	-27.558125	-6.405000
-164.639008	-18.361000	1133.135986	10.692500	-15.990625	-11.493125
-120.597000	12.566000	1091.594971	5.276250	20.348125	-14.726250
-84.973000	-10.797000	987.528992	-0.735000	4.974375	-6.164375
-72.468002	2.318000	1033.523071	9.581250	-7.875000	5.271875
-65.879997	26.657000	1015.710999	8.290625	6.680625	4.300625
-43.615002	15.372000	981.489990	-5.871250	4.252500	1.404375
-52.582001	31.110001	1001.132019	-13.269375	-1.631875	-1.150625
-40.320999	4.209000	998.204041	-7.931875	-1.133125	-5.407500
-31.354000	12.261000	1019.492981	0.424375	2.961875	-5.193125
-22.264999	-1.708000	1038.525024	7.039375	2.397500	-2.030000
-16.469999	20.496000	1026.630005	7.739375	7.721875	-0.087500
-8.723001	40.564999	1009.428040	7.183750	3.998750	0.971250
-0.183000	22.691999	1015.283997	1.286250	3.395000	-0.341250
7.137000	14.091001	1038.525024	-1.610000	-0.179375	-1.102500
-1.647000	28.365000	1038.952026	-3.084375	2.253125	1.596875
-14.457000	15.921000	1002.962036	3.990000	1.531250	7.210000
-29.951000	26.230000	1000.400024	7.236250	2.436875	8.172500
-25.375999	37.881001	999.851013	3.570000	0.581875	6.378750
-25.925001	27.938000	1007.536987	-2.975000	-1.347500	3.539375
-22.326000	32.513000	1027.849976	0.770000	-4.620000	0.770000
-17.385000	34.587002	997.777039	0.161875	2.681875	-1.500625
-17.263000	39.406002	980.270020	2.633750	-0.603750	-1.176875
-8.601000	45.506001	1036.328979	0.647500	-5.276250	-2.056250
-15.494000	42.761002	1025.227051	1.828750	-1.273125	0.341250
-22.631001	30.866001	1000.765991	-0.385000	-1.391250	2.191875
-22.326000	35.624001	1025.837036	-3.692500	-2.318750	2.021250
-31.110001	18.483000	1019.066040	-3.281250	-3.591875	1.365000
-33.733002	26.901001	1026.812988	3.093125	-2.008125	-1.981875
-41.053001	41.541000	1017.968018	4.663750	3.749375	-5.123125
-52.948002	43.126999	1023.763000	6.755000	-6.221250	-1.763125
-111.325005	44.591000	1040.354980	-4.108125	-6.470625	4.624375
-167.201004	32.513000	1060.850952	-5.293750	-5.149375	5.748750
-260.470001	28.243000	1078.419067	-1.041250	-5.670000	1.960000
-203.923004	28.853001	1060.484985	-0.870625	-1.627500	-7.052500
-165.005005	50.813000	1039.317993	0.196875	1.098125	-7.686875
-153.110001	44.834999	1011.807007	2.528750	16.178749	-5.337500
-131.393997	37.576000	975.268005	5.250000	16.200624	0.546875
-60.512001	19.276001	1009.794006	-21.538124	0.415625	7.406875
33.672001	46.360001	1008.268982	-16.480625	17.298750	5.801250
36.539001	50.020000	980.148010	-20.103125	18.558750	3.023125
121.024002	-22.631001	955.626038	0.341250	14.441875	5.363750
73.993004	40.809002	987.346008	4.571875	15.316875	8.325625
148.108002	22.021000	997.471985	16.756250	9.590000	2.485000
235.399002	26.047001	1004.304016	18.541250	-14.573125	4.987500
278.891998	38.186001	1054.567993	8.133125	-19.416250	10.246250
230.031006	23.241001	1107.454956	16.821875	-8.133125	15.203125
230.641006	-16.409000	1086.227051	21.774376	14.879375	0.796250
206.240997	51.484001	1047.919067	19.928125	25.326876	-14.258125
129.259003	51.789001	997.471985	9.716875	26.267500	-21.122499
165.005005	48.068001	1043.405029	-0.599375	1.981875	-17.097500
93.757004	73.809998	1006.072998	-12.468750	-14.406875	-5.468750
90.524002	2.318000	1006.377991	-12.123125	-14.931875	27.251875
-69.357002	23.668001	1028.399048	-4.423125	1.491875	20.553749
-53.436001	64.781998	944.707031	4.908750	-0.131250	21.669374
-129.930008	79.788002	975.755981	11.418750	-20.921249	19.481874
-112.239998	110.471001	987.895020	9.003750	-3.443125	12.258750
-178.912994	186.416000	1029.192017	11.655000	0.962500	7.927500
-230.701996	150.792007	1095.864990	3.775625	-20.203751	4.195625
-215.085999	146.216995	1019.614990	3.928750	-6.750625	4.834375
-220.576004	144.326004	1031.021973	-8.365000	-14.651875	-5.875625
-250.710007	102.480003	1054.202026	-21.406876	-2.970625	-29.469999
-130.723007	79.788002	1026.630005	-11.978750	3.587500	-36.872501
-96.989998	69.357002	976.549011	-1.911875	16.817499	-18.379375
-101.198997	51.667000	988.871033	-6.186250	5.993750	-14.113750
-57.767002	75.457001	1021.872009	6.715625	-4.930625	-5.425000
-31.415001	66.917000	1024.494995	4.965625	-12.446875	6.693750
-50.081001	64.050003	1034.987061	7.144375	0.310625	9.642500
-44.408001	68.502998	1015.406006	8.894375	-7.914375	13.566875
-37.576000	71.492004	959.652039	1.999375	-0.905625	11.506250
-25.802999	103.273003	1040.233032	8.443750	1.894375	6.164375
-11.407001	107.360001	1039.500977	7.424375	-0.406875	6.181875
-2.989000	122.549004	1026.935059	-0.953750	3.793125	5.508125
-9.333000	99.795998	1025.166016	0.503125	1.264375	4.462500
-7.076000	93.940002	1005.280029	-4.274375	-0.293125	3.071250
-8.235000	79.178001	998.020996	-4.366250	4.239375	3.084375
-16.226000	68.564003	993.324036	-6.772500	4.178125	3.066875
-20.191000	72.346001	999.424011	-3.154375	-0.424375	1.754375
-16.836000	81.618004	999.973022	-1.448125	-2.502500	-2.581250
-15.921000	95.403999	1007.781006	-3.018750	4.585000	-4.633125
-12.993000	95.891998	1008.574036	-8.338750	-4.580625	-5.013750
-14.152000	84.302002	1020.530029	-10.228750	-2.305625	-3.233125
-22.204000	71.125999	1012.721985	-10.596250	2.143750	-0.883750
-31.476000	55.570999	1005.280029	-10.679375	-6.698125	0.953750
-42.821999	50.874001	1006.439026	-9.598750	0.441875	1.903125
-71.492004	39.466999	1020.346985	-9.196250	-4.471250	2.069375
-152.317001	16.653000	1061.888062	-13.291250	-3.714375	-7.612500
-204.289001	19.276001	1048.712036	-4.235000	6.050625	-23.813126
-212.462997	70.760002	1069.146973	-2.905000	-4.025000	-24.390625
-186.416000	48.983002	1055.117065	-6.518750	0.450625	-13.864375
-199.165009	54.351002	1049.078003	-7.507500	23.922501	-0.310625
-188.429001	37.027000	1023.031006	4.305000	12.608750	8.356250
-131.516006	59.048000	990.457031	4.182500	10.001250	17.688126
-106.262001	37.942001	1003.510986	8.098125	12.285000	20.991249
-50.020000	40.199001	1023.640991	-14.192500	-11.449375	12.582500
39.771999	62.952000	963.799988	-13.308750	5.341875	3.403750
73.993004	-8.662000	977.463989	-21.113750	-20.055000	5.398750
162.931000	-28.182001	930.738037	-17.508751	-2.576875	0.000000
176.106995	-58.987000	1023.092041	-34.343750	-8.653750	-7.581875
265.106018	-35.319000	1007.171021	-37.270626	-17.596251	-21.118126
313.722992	-72.346001	1028.947998	-11.545625	-8.723750	-4.996250
243.389999	-148.962006	1072.562988	-16.078125	33.731251	-4.904375
241.072006	-142.862000	1057.435059	-9.406250	23.051874	-10.425625
211.975006	-160.186005	1117.641968	1.435000	23.913750	-25.519375
229.360001	-125.111000	985.333008	6.658750	22.093750	-20.982500
146.339005	-154.147003	979.355042	-2.362500	10.753750	-2.528750
160.735001	-147.315002	1012.112000	18.501875	-3.316250	1.680000
94.550003	-89.364998	960.567017	44.121876	9.734375	12.306875
-1.403000	-86.498001	967.947998	49.105000	7.245000	12.254375
-43.066002	-19.886000	971.486023	34.041874	-7.161875	-5.096875
-107.542999	31.720001	1000.460999	-0.866250	-50.649376	-8.303750
-160.856995	20.496000	1039.989014	-14.288750	-15.824375	-24.626875
-188.734009	71.613998	1002.473999	-31.390625	-3.727500	-23.379999
-114.802002	50.630001	1068.415039	-37.660000	-43.557499	-20.006874
-137.432999	-34.038002	1084.519043	-29.623125	-17.329374	-12.005000
-148.596008	-60.938999	1012.234009	-11.436250	5.871250	-4.729375
-168.298996	-74.724998	1039.744995	-7.170625	-1.688750	8.815625
-190.747009	-114.192001	1020.225037	-15.461250	5.530000	3.281250
-114.252998	-123.769005	999.606995	-5.053125	0.533750	-9.415000
-77.958000	-106.872002	978.257019	12.320000	12.372500	-4.261250
-36.295002	-97.599998	1007.963989	19.788124	12.696250	6.448750
-15.860001	-85.034004	1028.276978	24.268126	4.011875	18.427500
-26.718000	-56.608002	964.715027	23.489374	4.025000	23.174376
-14.091001	-44.347000	1023.335999	14.039375	8.557500	15.981875
-20.801001	-49.715000	994.239014	11.733750	7.096250	9.830625
-31.354000	-30.256001	1021.018005	2.458750	1.723750	2.393125
-27.267000	-26.718000	1007.354004	2.371250	-0.376250	-1.111250
-14.335000	-30.439001	1026.264038	-1.093750	3.386250	1.085000
-22.509001	-10.126000	1035.414062	4.130000	-3.132500	3.854375
-19.520000	-4.331000	1000.156006	2.187500	5.709375	3.386250
-32.390999	-7.930000	1025.166016	0.218750	-1.470000	3.294375
-17.019001	-8.479000	995.580994	-2.765000	2.292500	1.911875
-27.999001	-11.102000	1034.255005	-2.139375	-2.191875	1.483125
-21.655001	-11.956000	1020.225037	1.942500	0.030625	4.086250
-26.840000	-12.383000	1001.497986	-2.441250	2.196250	4.086250
-30.134001	-23.424000	1035.718994	4.795000	-2.200625	4.213125
-18.483000	-23.790001	1023.092041	0.319375	-1.281875	4.558750
-41.541000	-12.871000	1018.700012	4.335625	3.421250	1.522500
-34.098999	-10.675000	1008.817993	3.941875	0.192500	-2.839375
-31.476000	0.183000	1019.371033	0.918750	-4.029375	-1.903125
-28.548000	-8.784000	999.119019	-2.025625	-2.056250	-0.800625
-32.879002	-10.431000	1019.005005	-0.634375	4.970000	-1.728125
-51.056999	-20.069000	1015.283997	-1.303750	-0.844375	-2.152500
-87.901001	-13.298000	1007.536987	-2.126250	-4.357500	-2.983750
-123.585999	-13.542000	992.897034	1.570625	-2.721250	-4.396875
-217.526001	5.673000	1046.638062	16.200624	3.202500	-0.621250
-267.240997	-32.818001	971.059021	23.130625	24.171875	-3.198125
-183.671005	59.109001	1081.224976	9.966250	-10.841250	19.473125
-206.057999	68.869003	1054.079956	40.643749	6.969375	29.190001
-245.585999	112.606003	1036.755981	41.002499	17.928749	30.261875
-245.830002	129.380997	1014.247009	32.160625	11.200000	34.321877
-201.544006	105.103004	929.518005	15.146250	-1.316875	24.093124
-116.022003	61.061001	870.470032	-1.771875	-3.097500	-5.390000
42.028999	96.624001	1061.948975	1.378125	-1.325625	-17.920000
205.326004	95.891998	1039.500977	-25.895624	42.249374	-10.535000
68.869003	67.161003	966.484009	-31.246250	81.628754	-20.895000
177.815002	152.134003	1084.092041	-47.674374	41.540627	-26.617500
158.417007	81.434998	1102.208984	-34.965000	-20.370001	-29.964375
179.462006	-12.139000	1140.273071	-16.979376	-50.771873	-22.688749
209.291000	-46.542999	1163.026001	-20.076876	-16.918125	-20.378750
190.807999	-75.091003	1044.990967	-11.676875	8.382500	-21.892500
190.197998	-80.459000	973.682007	-23.773750	-15.019375	-9.559375
141.093002	-108.945999	973.437988	-20.024376	-6.190625	-4.055625
2.989000	-61.487999	961.116028	4.790625	-17.373125	8.080625
-11.285000	-91.072998	936.533020	4.580625	-22.286249	13.085625
-66.001999	26.108000	982.221985	2.489375	-32.917500	8.316875
1.586000	-46.299000	1044.442017	-11.628750	-31.819374	4.353125
-41.907001	9.272000	1016.992004	-8.701875	-14.061250	6.496875
-111.203003	-22.143000	1020.225037	1.238125	12.740000	0.376250
-211.792007	-28.059999	973.132996	1.968750	10.071250	14.643125
-266.936005	-39.101002	979.416016	3.465000	10.561250	11.834375
-291.580017	-43.737000	1025.776001	22.513750	-1.951250	0.035000
-231.494995	-59.902000	1029.436035	28.770000	5.285000	-13.580000
-215.330002	-28.548000	1052.615967	8.750000	-0.625625	-12.691875
-148.291000	-49.471001	1049.749023	0.341250	-7.682500	-10.889375
-84.545998	-50.751999	1052.188965	2.222500	11.628750	-1.575000
-67.892998	-34.892002	1039.989014	-5.280625	6.496875	5.464375
-50.569000	-18.422001	1048.041016	1.977500	21.201250	11.913125
-73.016998	-4.270000	1010.038025	-0.761250	9.996875	12.110000
-62.037003	-6.954000	1025.714966	-0.700000	6.103125	13.243125
-78.445999	-11.651000	972.278992	-2.463125	4.440625	10.084375
-73.749001	-4.026000	999.241028	0.546875	-0.490000	3.136875
-84.850998	-8.052000	1005.890015	-5.477500	0.446250	-0.695625
-84.362999	-3.355000	994.726990	-1.793750	4.585000	-4.878125
-103.639000	-2.196000	1014.429993	-7.472500	-0.389375	-9.091250
-62.830002	-15.616000	1012.783020	-0.765625	1.925000	-9.738750
-53.802002	-36.112000	1007.231995	-1.159375	2.922500	-6.820625
-24.278000	-47.336002	1046.881958	-2.528750	1.933750	-0.240625
-28.365000	-50.386002	1012.416992	-9.025625	0.962500	10.836875
-22.509001	-21.410999	1020.835022	-5.831875	5.674375	7.735000
-71.003998	-44.103001	1016.626038	-4.248125	-0.700000	0.971250
-62.098000	-40.138000	991.554993	-2.380000	0.105000	-6.838125
-58.499001	-40.992001	1016.320984	-3.263750	-2.865625	-9.546250
-28.426001	-47.458000	1054.140991	-3.416875	-9.751875	-7.266875
34.831001	-61.915001	1086.531982	-0.975625	-3.766875	0.385000
68.747002	-49.897999	1051.274048	-8.631875	4.095000	11.554375
77.835999	-30.866001	1026.264038	-6.510000	6.151250	19.565001
97.599998	-35.806999	976.915039	-9.786875	7.918750	25.138750
73.566002	-38.979000	967.825989	9.095625	-7.301875	28.542500
133.956009	-66.184998	1032.973999	11.366250	-16.240000	29.251249
76.006004	-74.907997	956.906982	5.136250	-1.246875	35.883751
62.220001	-52.459999	981.489990	1.220625	12.512500	32.821251
-58.804001	-84.240997	964.776001	-11.856250	-14.498750	40.923752
-55.083000	32.513000	1008.085999	-6.378750	-22.579374	9.034375
16.165001	124.562004	1172.603027	1.964375	-4.917500	-24.753750
-143.654999	-88.084000	997.777039	-15.211875	-12.398750	-41.877499
-270.718018	-62.037003	1001.376038	-20.632500	-2.078125	-41.243126
-272.791992	-91.682999	983.259033	-7.888125	-22.806875	-23.450001
-260.165009	-118.096001	1052.982056	-1.487500	22.006250	-1.054375
-335.804993	-80.459000	1024.556030	-1.185625	7.315000	9.660000
-295.727997	-95.648003	1052.188965	12.586875	-14.153125	17.281250
-299.937012	-39.040001	1078.541016	24.661875	-9.091250	22.680000
-279.319000	18.971001	1090.436035	40.783749	-33.215000	23.113125
-220.393005	15.189000	1070.854980	49.717499	-25.803749	5.722500
-166.102997	72.406998	1051.761963	32.843124	-12.985000	-21.910000
-116.815002	20.679001	964.288025	12.639375	-14.153125	-40.416248
-71.736000	26.352001	976.122009	3.723125	10.430000	-32.987499
-45.139999	43.675999	991.921021	19.512501	29.658125	-7.000000
-35.380001	165.432007	1003.999023	22.557501	49.835625	7.026250
-16.714001	140.483002	973.682007	40.932499	67.781876	4.423125
130.173996	188.307007	1062.864014	20.190624	8.093750	8.207500
77.897003	158.173004	1021.994019	-32.200001	41.540627	17.561251
133.589996	54.961002	1086.348999	-32.554375	8.303750	10.928750
139.568008	19.398001	1039.989014	-14.122500	13.934375	3.097500
115.778000	-36.234001	1000.033997	-14.730625	-5.788125	0.358750
64.050003	-6.954000	1054.079956	-21.914375	-7.700000	-3.346875
45.383999	-38.247002	990.700989	-24.902500	-2.537500	-14.140000
55.693001	-37.514999	1017.846008	-17.189375	-6.685000	-13.825000
-8.540000	-19.825001	1024.677979	-8.277500	2.450000	-3.766875
-34.342999	-17.934000	1006.500000	1.522500	-3.141250	-5.726875
-49.288002	22.264999	978.257019	-5.993750	-1.505000	-4.165000
-81.374001	12.749001	990.273987	-2.800000	-13.772500	3.841250
-63.257000	-10.309000	1033.218018	-7.293125	-9.288125	-8.295000
-70.760002	-21.960001	990.152039	-7.993125	-14.175000	-2.358125
-49.593002	-37.698002	1018.028992	0.656250	-13.803125	4.099375
-43.249001	-7.808000	943.731018	2.629375	-2.156875	4.921875
-59.109001	-3.721000	1030.777954	1.750000	1.780625	8.907500
-74.419998	1.464000	1013.575989	1.483125	-1.675625	2.821875
-60.268002	22.691999	1064.633057	-1.697500	-4.825625	-2.275000
-58.621002	4.026000	1051.395996	-5.359375	-15.408750	-2.100000
-29.707001	-18.177999	1002.718018	5.551875	-7.161875	-7.459375
-42.456001	-54.961002	1034.437988	5.831875	6.225625	-2.926875
-67.587997	-32.330002	1024.433960	-5.057500	8.150625	-9.016875
-32.757000	19.276001	1009.001038	-15.233750	-10.766875	-10.994375
-29.585001	0.793000	1017.723999	9.301250	7.918750	-4.160625
-2.013000	-14.457000	1023.397034	-5.013750	11.978750	-4.156250
-22.936001	-53.070000	1013.210022	-15.741250	8.540000	-1.693125
-32.390999	-35.746002	1040.354980	-16.883125	2.900625	-1.373750
-12.993000	-55.205002	1019.981018	-3.985625	10.605000	-0.100625
-36.050999	-73.383003	1013.820007	1.124375	12.512500	-6.951875
-25.559000	-65.514000	1018.760986	-0.258125	4.869375	-12.040000
-12.810000	-63.562000	1041.391968	-8.763125	1.526875	-10.858750
22.814001	-60.573002	1039.196045	-8.426250	5.744375	-4.917500
44.042000	-54.716999	1030.167969	-13.129375	4.064375	8.439375
46.848000	-86.863998	1032.485962	-9.104375	4.130000	9.725625
40.809002	-92.354004	996.007996	-13.440000	8.496250	2.345000
122.610001	-124.440002	1024.921997	-20.286875	0.161875	3.237500
153.110001	-156.526001	995.458984	-23.813126	8.356250	7.896875
79.726997	-161.345001	991.067017	-25.396875	-4.274375	18.952499
65.391998	-146.949005	987.833984	-18.108126	-7.288750	20.558125
41.114002	-116.022003	969.838989	-12.604375	-12.455625	22.303749
9.333000	-113.642998	958.127014	-1.610000	-17.473749	17.412500
-22.631001	-135.602997	1005.158020	-5.490625	-18.313749	7.546875
30.683001	-136.822998	994.178040	-2.826250	-22.028126	4.580625
-41.236000	-124.195999	981.612000	-1.706250	3.276875	-3.963750
-95.465004	-123.952003	984.052002	-8.977500	4.038125	-15.264375
-182.755997	-117.913002	945.804993	10.714375	14.516250	-34.807499
-272.548004	-157.380005	974.718994	27.391874	15.426250	-41.334999
-342.759003	-189.344009	1038.890991	37.677502	-18.506250	-28.682501
-366.670990	-156.160004	1117.825073	43.623123	-10.027500	-15.286250
-335.256012	-134.871002	1098.732056	23.520000	-24.084375	4.917500
-360.632019	-48.007000	1078.052979	7.013125	-14.918750	17.963751
-376.431000	-31.598000	1046.698975	11.239375	9.533125	23.344999
-378.748993	-71.675003	1041.941040	-10.027500	-16.874374	23.196251
-279.623993	-78.507004	1026.447021	6.076875	-6.133750	23.638124
-217.953003	-43.615002	975.572998	15.417500	33.626251	17.364374
-151.218994	-57.462002	982.954041	-14.691250	6.518750	6.085625
-71.308998	-48.434002	1097.817017	-0.166250	7.441875	1.150625
-43.920002	-5.185000	958.859009	27.895000	72.900627	-17.657499
44.957001	44.652000	982.405029	45.517502	67.204376	-14.100625
26.169001	92.415001	1005.707031	57.977501	72.108749	2.148125
24.278000	102.541000	1043.649048	64.290627	81.339996	-1.955625
6.405000	133.468002	1038.342041	21.923124	-53.865002	-4.812500
93.878998	144.570007	1072.197021	-1.728125	-127.614372	-9.178750
193.369995	88.145004	1105.380981	-29.084999	-89.175629	-8.338750
116.875999	43.126999	1021.079041	-29.951250	-6.129375	-3.241875
50.935001	5.063000	974.718994	-36.150623	1.605625	-0.026250
68.502998	-5.734000	985.028015	-45.959373	-25.291876	3.237500
16.042999	-39.650002	1053.713989	-38.346874	-14.503125	1.745625
29.341000	-51.118000	992.531006	-30.467501	6.746250	-2.388750
-2.440000	-64.965004	1020.468994	-23.725624	-0.875000	-5.407500
3.660000	-71.675003	1018.028992	-18.165001	-4.856250	-7.669375
-1.525000	-66.856003	1012.478027	-3.005625	2.686250	-7.533750
8.052000	-74.907997	1002.108032	9.677500	6.772500	-4.834375
-17.568001	-81.923004	922.137024	7.336875	2.318750	-1.885625
-17.995001	-73.871002	1028.032959	6.370000	-5.359375	-1.929375
-17.446001	-66.429001	1025.714966	7.590625	1.391250	-3.316250
-32.390999	-66.917000	1020.713013	4.055625	-1.960000	-2.852500
-13.481000	-55.754002	1011.197021	7.000000	2.782500	-4.051250
-17.995001	-50.202999	1003.083984	0.752500	0.857500	-0.616875
-15.616000	-60.389999	1015.710999	-0.494375	0.100625	0.695625
-5.551000	-57.096001	1006.561035	-4.239375	5.674375	3.556875
-36.660999	-57.889000	1003.328003	-2.240000	1.601250	3.928750
-27.145000	-57.584000	1012.539001	1.400000	1.093750	1.251250
-25.254000	-48.068001	1034.803955	-1.837500	-0.161875	0.586250
-15.189000	-60.573002	1023.945984	-0.577500	4.353125	-2.546250
-19.276001	-46.909000	1014.064026	-0.100625	3.714375	-3.351250
-2.623000	-50.202999	1019.432007	-4.471250	-0.717500	-1.618750
0.122000	-60.695000	1019.554016	-5.744375	5.468750	-2.502500
8.906000	-79.788002	1029.192017	-8.054375	0.083125	-1.951250
48.129002	-89.669998	1059.630981	-10.430000	-1.741250	-4.895625
118.889000	-106.139999	1061.400024	-13.720000	1.277500	-8.557500
214.110001	-104.737000	1037.671021	-15.981875	-2.703750	-9.738750
261.873016	-82.289001	1033.462036	-14.936250	3.850000	7.993125
146.826996	-156.647995	986.065002	-18.655001	11.598125	12.613125
172.691010	-105.408005	992.043030	-20.264999	10.198125	1.194375
152.805008	-91.987999	921.770996	-30.769375	-8.054375	6.278125
170.434006	-144.630997	889.929016	-14.450625	-15.706250	13.623750
72.101997	-192.150009	986.796997	11.624375	-14.516250	37.353748
-131.455002	-158.783005	991.981995	-1.793750	-5.648125	18.278749
-129.625000	-88.450005	974.841003	-10.342500	-11.641875	-9.506875
-112.362000	-217.770004	1013.088013	-26.643749	-20.610624	-15.662500
-205.570007	-206.912003	1054.873047	4.987500	4.799375	-12.350625
-317.016998	-125.111000	963.799988	34.737499	30.931250	-22.942499
-337.085999	-101.870003	1010.587036	43.767502	39.528126	-30.135000
-353.312012	-180.132996	1058.228027	48.960625	28.481251	-22.741249
-375.576996	-112.239998	1038.829956	24.421249	0.616875	-2.336250
-338.671997	-92.354004	1040.233032	11.532500	-12.429375	10.749375
-294.873993	-65.453003	1040.050049	17.141251	-14.568750	25.186874
-273.707001	-45.079002	980.514038	-2.887500	-28.336876	25.926250
-203.130005	-61.366001	981.489990	-9.170000	-21.791876	22.802500
-143.410995	-61.915001	997.228027	-6.063750	-15.981875	20.015625
-117.730003	-17.019001	1009.001038	1.745625	-11.287500	11.077500
-83.447998	15.738000	1025.593018	19.018126	-3.491250	-6.055000
-42.577999	5.673000	1044.686035	18.878124	-7.358750	-12.534375
-57.584000	56.181000	1099.769043	17.513124	22.916250	-19.490625
12.566000	6.893000	1058.166992	-1.876875	16.139376	-28.144375
88.694000	-39.161999	1028.216064	-11.602500	-29.780624	-17.556875
142.740005	-41.358002	1083.482056	-9.686250	-19.766251	-0.262500
164.944000	-73.626999	999.911987	7.818125	0.118125	7.616875
188.977997	-23.973000	985.699036	3.898125	-2.769375	14.953750
177.876007	-50.874001	957.760986	9.896250	11.856250	7.052500
189.466003	-21.899000	913.718994	6.698125	1.548750	5.543125
156.343002	-36.295002	897.981018	31.683750	9.926875	-9.673125
189.344009	-9.211000	986.980042	28.966875	-2.336250	-24.736250
225.212006	39.833000	1036.938965	3.692500	-13.510000	-21.822500
188.734009	96.929001	1029.070068	-4.606875	-4.256875	-14.918750
164.578003	48.250999	1037.975952	-7.914375	8.636250	-18.309376
151.218994	40.320999	1034.987061	-27.238750	12.875625	-11.396875
91.439003	14.701000	1032.242065	-36.001877	0.560000	-1.334375
70.882004	-39.406002	1012.234009	-31.045000	4.046875	-3.771250
41.480000	-44.652000	1019.981018	-19.687500	4.191250	0.730625
29.402000	-53.618999	1006.072998	-16.078125	2.808750	0.678125
11.224000	-67.344002	1005.280029	-12.617500	2.065000	3.696875
-8.174000	-85.827003	1016.320984	-12.582500	1.872500	4.663750
1.281000	-92.842003	1016.869995	-6.615000	0.861875	3.228750
10.980000	-93.452003	1025.958984	-5.840625	-3.285625	2.340625
3.660000	-101.138000	1015.101013	4.081875	-1.540000	3.145625
20.191000	-100.345001	1008.695984	6.046250	-1.089375	3.180625
7.747000	-91.622002	1019.981018	6.759375	-0.402500	4.751250
8.540000	-77.897003	1021.262024	6.492500	1.111250	2.821875
18.666000	-70.638000	1019.737000	6.173125	-0.144375	1.050000
6.100000	-76.860001	1032.364014	2.835000	2.537500	1.566250
24.034000	-59.841000	1016.504028	7.253750	4.081875	1.763125
21.594000	-69.417999	1013.270996	6.072500	0.271250	4.064375
35.136002	-60.389999	1012.783020	7.612500	1.754375	4.633125
32.390999	-59.048000	999.911987	5.989375	2.034375	5.530000
26.840000	-47.275002	1006.804993	9.887500	-1.360625	4.515000
30.012001	-37.271000	1004.791992	7.341250	-1.636250	2.651250
19.764000	-41.358002	1016.809021	4.182500	-0.533750	0.446250
56.730000	-31.842001	1015.283997	-0.459375	0.809375	0.004375
23.668001	-35.014000	1017.053040	-1.758750	4.208750	0.809375
26.352001	-21.228001	1018.151001	2.651250	1.631875	0.468125
55.021999	-37.758999	1028.765015	3.416875	3.434375	-0.752500
123.280998	-46.299000	1051.457031	-2.677500	12.438125	1.045625
174.826004	-55.388000	1062.010010	-0.892500	25.475624	3.123750
234.362000	-53.680000	986.492004	10.889375	27.719999	5.009375
212.889999	-69.723000	998.387024	10.823750	14.783125	8.019375
233.324997	-31.781000	1033.583984	5.398750	-2.117500	7.555625
238.998001	-1.342000	1007.658997	-2.568125	-5.569375	6.308750
177.632004	-35.746002	985.150024	-10.220000	-5.866875	8.347500
130.906006	-12.810000	995.885986	-25.987499	-37.493752	19.648125
11.529000	39.101002	1210.728027	-17.867500	-10.211250	8.658125
-76.982002	-14.030000	944.950989	-11.326875	-8.911875	-2.944375
-144.630997	-82.411003	980.635986	-29.601250	-14.275625	-2.231250
-123.159004	-38.307999	1073.722046	-14.507500	-17.386250	-7.892500
-157.501999	-72.528999	1094.828003	9.126250	-11.134375	-13.514375
-180.194000	-71.492004	1008.635010	18.423124	-14.853125	-17.491249
-243.268005	-6.344000	1095.437988	31.749374	1.741250	-18.129999
-245.830002	-30.866001	1033.218018	18.042500	-6.921250	-10.403750
-245.158997	-14.396000	1060.729004	-0.905625	10.434375	0.748125
-224.113998	-25.498001	1080.553955	0.835625	31.832500	8.579375
-190.014999	-92.659004	1050.237061	-16.454374	0.555625	18.410000
-182.817001	-71.065002	1075.734985	6.391875	3.053750	25.300625
-160.186005	-12.322001	1022.481995	17.955000	14.761250	22.824375
-124.867004	-13.847000	973.072021	-3.648750	-6.116250	5.792500
-91.195000	-1.769000	1054.079956	3.701250	-1.684375	-5.302500
-38.674000	-43.371002	999.057983	-9.191875	-1.920625	-15.868125
10.309000	-62.037003	1031.448975	-0.831250	-5.206250	-1.758750
26.413000	-14.091001	1026.447021	18.641874	11.112500	2.887500
83.692001	42.272999	943.304016	7.441875	19.639376	-0.647500
