A_X [mg]	A_Y [mg]	A_Z [mg]	G_X [dps]	G_Y [dps]	G_Z [dps]
-35.746002	1.647000	960.994019	4.830000	-0.673750	-15.448125
4.209000	-4.453000	983.564026	-5.827500	-18.410000	-6.461875
-14.579000	-12.871000	1007.476013	-0.695625	-2.353750	-5.293750
29.341000	0.854000	1014.064026	-8.806875	-8.115625	0.196875
16.104000	-27.145000	1049.810059	2.288125	1.181250	-3.329375
12.810000	6.222000	1056.031982	0.485625	-1.876875	-0.608125
14.213000	-13.481000	1036.572998	3.364375	0.529375	2.069375
18.971001	-2.928000	1053.042969	-4.068750	-1.233750	3.421250
8.967000	-28.487000	1013.270996	-7.748125	5.429375	3.521875
8.662000	-27.816000	994.848999	-0.271250	2.410625	4.493125
8.418000	-19.580999	1043.709961	-3.132500	-2.143750	2.441250
18.910000	-39.589001	1016.931030	2.196250	1.522500	2.270625
29.889999	-21.472000	1041.635986	1.806875	4.948125	0.516250
6.222000	-13.542000	1000.095032	-1.351875	-3.994375	1.176875
14.152000	-37.332001	1003.694031	-0.630000	5.153750	0.564375
13.298000	-6.771000	1017.968018	1.312500	-4.427500	-0.945000
18.483000	-24.461000	1017.358032	1.754375	0.503125	2.108750
11.224000	-36.660999	993.812012	-1.697500	-8.452500	2.135000
22.814001	-49.837002	1045.600952	1.211875	2.835000	0.017500
21.837999	-36.417000	996.434998	-2.419375	-0.905625	-0.148750
15.067000	-18.300001	1020.652039	-0.673750	-0.358750	-1.373750
30.743999	-17.629000	1042.489990	-2.463125	0.857500	1.518125
25.132000	-19.520000	1053.713989	-5.560625	-0.301875	2.918125
15.372000	-38.247002	1066.218994	5.486250	6.138125	-0.581875
8.174000	-5.856000	998.936035	-0.148750	2.165625	1.596875
-6.283000	-24.400000	921.527039	-1.736875	8.531250	2.423750
7.869000	-17.019001	871.140991	-2.493750	1.763125	-1.141875
7.015000	-45.445000	801.052002	-0.651875	6.706875	-3.500000
-17.323999	-40.687000	651.846008	10.381875	0.638750	-11.659375
-1.342000	1.708000	681.919006	-1.207500	-3.215625	-16.690624
-27.267000	16.531000	591.333984	-10.898125	-16.493750	-18.283125
4.819000	45.201000	857.354980	-7.560000	-4.375000	-17.898125
6.649000	-1.830000	873.642029	8.435000	18.235001	-9.524375
18.056000	14.945000	977.463989	3.097500	-9.852500	-13.514375
50.081001	6.161000	1197.307983	42.148750	12.145000	4.191250
-5.429000	2.318000	1231.162964	-13.798750	-13.877500	0.573125
10.675000	22.204000	1280.572998	0.398125	20.286875	6.685000
91.134003	-41.846001	1239.825073	-42.511875	-13.908125	-4.598125
-2.196000	-53.070000	1397.510010	-52.653126	9.743125	-10.976875
-64.171997	-232.531998	1447.407959	-37.016876	0.275625	-12.569375
-126.026001	-240.766998	1532.747070	-2.135000	-9.909375	-13.457500
-34.342999	-188.673004	1405.073975	30.135000	11.571875	-11.865000
10.431000	-105.286003	1268.800049	42.153126	6.881875	-0.761250
-11.956000	-118.645004	1299.848999	23.301250	14.879375	-2.419375
7.686000	-28.304001	1220.000000	4.882500	-23.808750	-11.423125
35.868000	-2.745000	1100.379028	21.468124	-33.700626	0.498750
-8.601000	88.694000	1156.376953	30.371250	-2.016875	15.211875
19.764000	115.350998	1113.738037	25.484375	-46.200001	27.514376
91.500000	113.947998	941.413025	14.140000	-7.647500	34.921249
56.669003	105.469002	702.414978	37.716873	-0.411250	31.136875
62.646999	117.973999	650.442993	25.965626	11.816875	25.549999
63.867001	28.426001	808.189026	6.781250	10.259375	17.158751
54.778000	37.698002	826.671997	-2.318750	47.761875	4.952500
40.748001	12.627000	827.038025	-16.270624	28.875000	-6.772500
37.393002	-9.882000	890.905029	-9.170000	36.920624	-13.155625
7.686000	71.187004	862.845032	-3.784375	23.003750	-12.096875
-16.531000	79.543999	895.296997	-10.360000	-0.223125	-1.916250
-42.700001	15.372000	852.109009	-9.821875	-4.939375	0.826875
-38.612999	45.932999	885.476013	-17.696875	-12.210625	-0.148750
-21.899000	40.199001	882.182007	-19.823126	-9.550625	-3.430000
17.141001	33.367001	990.822998	-17.876249	-17.823750	-9.021250
-5.795000	29.402000	1034.316040	-16.183125	-12.827500	-13.422500
-20.984001	31.598000	1014.613037	-12.845000	-22.351875	-14.686875
45.688999	-13.115000	1149.789062	-0.612500	-4.970000	-5.499375
17.019001	15.494000	1169.614014	-3.268125	-19.333124	-9.415000
20.434999	-2.684000	1045.661987	7.332500	10.828125	-9.769375
56.852001	-18.788000	999.241028	-14.288750	11.646250	-6.698125
15.555000	-68.442001	1095.133057	-17.281250	23.581249	-6.947500
-5.429000	-67.649002	1080.126953	-17.780001	7.336875	-16.047501
-4.758000	-44.285999	1033.949951	-19.897499	12.403125	-27.278126
-13.664001	-69.112999	812.642029	-3.937500	-8.868125	13.658750
-64.355003	-24.705000	936.655029	10.828125	-9.336250	-7.188125
187.209000	-66.673004	897.249023	-5.376875	-10.723125	-0.844375
-29.951000	13.542000	959.468994	10.355625	-12.770625	5.556250
39.040001	-12.627000	970.754028	13.335000	20.689375	-17.600624
101.808998	-34.647999	1012.600037	-6.750625	-15.933750	-6.746250
28.609001	-39.040001	961.726013	-2.843750	11.948125	3.600625
45.567001	-28.792000	1044.015015	10.548125	-9.476250	-1.710625
23.790001	2.684000	1029.375000	2.786875	4.580625	3.478125
72.773003	-1.220000	1108.492065	5.101250	3.548125	2.502500
10.614000	19.276001	1046.454956	-2.708125	-20.873125	-4.462500
43.980999	-31.415001	1012.478027	10.005625	-11.900000	-10.591875
48.312000	-13.481000	1059.082031	13.461875	0.945000	-6.820625
27.816000	-19.703001	1104.039062	-2.874375	-8.325625	-3.320625
36.904999	-18.300001	1085.250977	-5.333125	-2.646875	-5.127500
44.042000	-42.882999	1023.458008	-11.746875	14.196875	-5.547500
7.686000	-14.152000	980.330994	1.417500	-0.660625	-5.018125
99.369003	-40.199001	1006.500000	2.944375	13.396250	-6.693750
50.691002	-5.490000	1007.963989	28.030624	-11.466875	-1.981875
38.917999	37.698002	1077.138062	13.978125	-5.000625	2.668750
44.408001	57.767002	1034.987061	-3.696875	4.484375	-0.437500
48.190002	40.077000	1011.014038	1.010625	8.872500	-5.018125
74.054001	4.209000	1061.827026	-0.761250	-5.306875	-8.999375
85.460999	-39.101002	966.666992	7.459375	-5.171250	-7.971250
107.237999	-4.392000	1108.979980	3.832500	-0.358750	0.940625
56.424999	-8.479000	996.252014	-25.427500	-13.440000	-4.720625
76.920998	-24.156000	964.471008	0.017500	-5.245625	-1.540000
6.344000	-2.318000	1112.640015	1.575000	-8.986250	9.795625
7.259000	43.859001	1055.300049	-17.224375	-5.849375	-1.085000
48.129002	2.806000	1035.474976	-8.050000	9.533125	-4.296250
48.007000	-2.196000	993.140991	1.054375	14.083125	-0.415625
33.549999	5.246000	992.775024	3.316250	7.240625	-3.215625
53.192001	-4.087000	961.908997	2.086875	6.523125	-7.555625
67.222000	-2.867000	989.237000	11.935000	2.170000	-5.630625
62.220001	6.344000	1037.549072	10.281250	1.141875	-6.146875
88.206001	-3.538000	1021.627991	2.541875	7.678125	-4.493125
57.827999	5.124000	1017.846008	2.121875	6.352500	1.684375
43.005001	8.479000	1012.600037	4.125625	8.535625	-1.535625
70.577003	17.019001	1010.648010	4.099375	3.360000	-1.015000
37.576000	19.153999	1019.737000	8.820000	-0.008750	-1.093750
68.014999	9.943000	1036.817017	10.591875	1.290625	-2.012500
37.698002	22.570000	1044.807983	1.890000	-0.595000	0.301875
31.354000	26.291000	1033.462036	-2.445625	3.539375	-3.110625
35.319000	27.450001	1053.104004	-1.627500	-0.310625	-3.819375
33.793999	35.257999	1009.489014	-10.329375	7.065625	-5.153750
35.746002	15.677000	986.492004	-5.880000	1.623125	-8.124375
45.018002	7.198000	995.825012	3.040625	-1.933750	-5.525625
25.620001	35.563000	955.565002	2.900625	8.881250	-0.385000
1.098000	30.256001	951.234009	-2.594375	-1.544375	-3.885000
3.172000	25.742001	991.799011	-5.678750	-15.093750	-7.437500
10.248000	27.267000	1008.268982	-0.380625	-6.553750	-6.868750
10.431000	1.159000	997.838013	-8.876875	-6.177500	-10.495625
74.237000	-20.557001	1013.820007	1.723750	-3.386250	-5.368125
55.021999	30.561001	1045.600952	14.284375	-2.248750	5.263125
70.577003	45.993999	1068.842041	14.721875	-2.603125	2.646875
56.852001	80.336998	1102.514038	6.593125	-0.354375	4.733750
57.157001	69.174004	1053.896973	-5.770625	10.583125	1.964375
48.434002	78.385002	1035.230957	0.704375	6.846875	1.855000
43.310001	55.815002	1064.876953	7.205625	3.613750	-2.130625
45.018002	75.884003	1055.848999	1.736875	4.388125	-0.783125
35.563000	87.718002	1028.032959	-7.284375	8.080625	-0.748125
53.497002	70.455002	1007.720032	-4.563125	6.308750	-4.077500
31.659000	49.715000	983.137024	-3.018750	4.125625	3.093125
-28.426001	76.250000	1000.522034	-3.456250	-2.594375	3.915625
11.163000	36.539001	1011.502014	5.210625	2.323125	-5.197500
10.919000	22.570000	1052.067017	5.582500	-5.311250	1.216250
-3.538000	10.126000	1071.221069	-5.254375	-4.703125	-0.918750
45.872002	-19.825001	1051.578979	-13.842500	8.741250	-0.385000
46.055000	-24.034000	1039.379028	-14.713125	4.991875	11.130000
24.095001	-39.650002	1002.169006	-16.708124	10.066875	14.529375
37.820000	-54.900002	1011.989990	-2.673125	5.656875	16.428125
8.479000	-49.532001	1047.675049	-7.048125	-6.383125	20.676250
-9.699000	-23.607000	991.250000	-12.551875	7.393750	24.272499
-22.448000	-20.618000	978.562012	-13.628125	0.783125	19.000626
9.638000	6.466000	962.824036	-7.310625	-1.658125	19.403126
4.087000	-3.904000	969.717041	9.428125	5.573750	19.705000
26.840000	38.917999	1018.578003	9.432500	-3.933125	18.116875
65.758003	1.342000	1107.150024	-20.234375	-1.640625	-8.146250
129.442001	-111.446999	886.452026	-11.716250	12.906250	19.048750
-77.470001	-39.466999	1010.587036	22.771875	3.823750	26.578125
-17.507000	-35.196999	1049.383057	3.915625	-15.041250	0.708750
18.726999	-4.026000	1009.428040	-8.150625	3.346875	4.217500
-39.223000	16.836000	1043.161011	-9.069375	-6.755000	-9.926875
21.533001	-8.845000	1051.091064	-11.926250	-4.930625	-15.579375
17.202000	-83.326004	1061.461060	-11.195625	-4.860625	-8.015000
-26.413000	-109.007004	1031.875977	-23.143749	-4.768750	-5.683125
-60.878002	-124.378998	959.286011	-17.753750	2.489375	-3.635625
-113.947998	-79.483002	969.595032	5.263125	-10.876250	-2.716875
-147.436996	-76.189003	950.319031	53.598125	-9.353750	-8.347500
-78.140999	-70.882004	1095.316040	28.599375	6.645625	-5.919375
-125.416000	18.056000	911.035034	-4.366250	21.831249	4.799375
48.129002	-32.513000	941.901001	37.174374	13.685000	-18.046875
-1.525000	26.962000	1041.758057	12.687500	1.583750	14.310625
-83.204002	45.750000	1038.219971	13.335000	9.305625	3.766875
56.486000	-31.171000	1056.214966	10.465000	16.743126	-14.065625
56.973999	84.180000	1083.238037	1.627500	3.241875	12.061875
67.954002	47.091999	1017.358032	-4.060000	7.581875	-0.735000
182.024002	57.767002	985.577026	-7.262500	-1.496250	-5.101250
181.475006	96.624001	1000.095032	16.423750	-8.211875	6.260625
179.828003	77.042999	1046.333008	4.213125	-8.085000	-3.626875
229.115997	61.549000	1047.004028	-3.517500	2.030000	-1.246875
176.595001	24.095001	983.015015	-15.588125	8.176875	0.354375
235.704010	-3.843000	1028.276978	1.526875	2.502500	-2.992500
223.382004	19.153999	1085.556030	-0.840000	6.374375	8.155000
201.117004	42.395000	1048.589966	-24.421249	13.921250	1.378125
172.324997	39.345001	950.807007	-21.367500	17.539375	5.206250
131.516006	47.458000	967.338013	-26.538750	2.603125	-2.209375
160.613007	-15.616000	1018.090027	-22.006250	1.225000	-2.765000
149.145004	4.514000	941.596008	-18.322500	13.107500	16.975000
81.801003	-16.653000	885.049011	-6.098750	-7.621250	28.118126
31.659000	-15.128000	871.263000	10.644375	-3.661875	27.571251
-15.433001	-61.854000	975.634033	18.335625	-46.283127	28.371876
-152.317001	-51.728001	952.515015	3.136875	-38.670624	21.393749
-219.477997	-55.815002	966.666992	4.554375	-48.938751	4.633125
-205.447998	-94.062004	1125.876953	18.900000	-53.584999	1.028125
-273.279999	-35.441002	1438.624023	12.061875	-29.601250	7.831250
-171.714996	-55.083000	1211.643066	-45.132500	-2.555000	-9.524375
-103.090004	-95.221001	1017.358032	-40.985001	21.551250	-1.378125
-86.742004	-72.956001	1051.945068	-7.529375	0.223125	5.748750
-144.630997	-49.105000	1151.984985	10.500000	22.176874	8.645000
-133.772995	-73.871002	1105.807983	3.644375	10.005625	-3.880625
-93.390999	17.568001	973.864990	3.561250	44.576874	1.680000
-83.936005	86.315002	886.390991	6.527500	27.177500	-8.085000
-22.448000	-13.420000	1037.244019	4.353125	35.551250	-14.144375
36.112000	11.102000	1035.109009	1.750000	41.829376	-30.121876
131.576996	-41.846001	943.182007	-22.404375	35.525002	-26.586876
107.055000	-54.961002	955.260010	3.766875	11.773125	-11.515000
114.070000	-94.733002	1012.294983	22.504999	23.104376	-12.162500
129.197998	-61.305000	1094.035034	4.795000	-9.865625	-2.021250
96.258003	-109.678001	1043.893066	6.098750	14.533750	0.542500
42.456001	-38.552002	1023.031006	10.482500	-2.471875	12.836250
-45.567001	-28.792000	1000.583008	6.868750	3.692500	9.765000
3.599000	-38.186001	1060.729004	12.328750	-3.701250	7.183750
-90.767998	-8.235000	1031.875977	-3.990000	0.328125	16.660000
-57.218002	-21.472000	1002.291016	-15.933750	-4.860625	1.443750
-6.649000	-36.173000	952.393005	1.089375	-1.868125	11.348750
-58.621002	-10.980000	1009.184021	-4.567500	-17.233126	14.236250
-64.721001	-25.559000	974.475037	-6.273750	-9.931250	4.742500
-10.553000	-26.779001	1017.358032	0.004375	-14.271250	1.172500
-55.998001	-13.847000	1031.692993	-14.761250	-17.425625	3.565625
-1.708000	-33.244999	1017.174988	2.944375	-2.922500	-0.144375
-43.493000	-19.032000	1006.988037	4.965625	-5.420625	0.905625
-15.067000	-44.347000	1034.255005	0.901250	-2.213750	1.968750
-24.095001	-40.260002	1010.098999	-4.681250	3.040625	2.773750
-16.653000	-47.214001	1025.837036	-4.611250	-0.135625	-1.036875
-12.932000	-27.511000	1008.817993	-1.719375	0.953750	-2.611875
-22.387001	-30.012001	1029.557983	-4.816875	2.051875	-2.651250
-14.945000	-46.421001	1000.705017	-7.065625	-0.240625	-3.346875
-32.939999	-59.109001	1006.134033	-2.397500	-2.318750	-3.683750
-32.939999	-59.658001	986.553040	-0.201250	-6.667500	-4.313750
-41.602001	-48.617001	1048.529053	-0.210000	0.297500	-2.563750
-56.852001	-43.920002	994.299988	-5.486250	-8.732500	-1.386875
-89.426003	-54.839001	1019.066040	-2.121875	0.875000	-1.168125
-141.276001	-36.478001	1042.001953	-3.530625	-2.992500	-4.156250
-131.210999	-67.527000	1047.919067	0.223125	0.468125	-3.696875
-155.733002	-70.760002	1027.666992	5.066250	1.141875	-7.940625
-122.854004	-69.235001	1022.238037	19.604376	7.424375	-12.818750
-126.148003	-57.950001	1026.081055	19.805626	15.255625	-11.186875
-59.597000	-34.587002	991.554993	15.627500	1.566250	-17.626875
-93.269005	-3.843000	924.393982	7.157500	-1.185625	-14.713125
-4.087000	61.671001	944.585022	3.688125	-10.136875	-7.061250
82.228004	4.636000	956.541016	14.284375	5.731250	1.570625
172.813004	47.458000	1045.052002	-10.701250	-22.176874	-4.007500
221.857010	46.421001	1072.380005	-9.603125	1.631875	-1.334375
274.927002	-6.649000	1063.352051	-24.014376	-11.230625	-4.208750
313.052002	-18.239000	1002.351990	0.660625	7.179375	-1.404375
310.368011	-54.167999	1121.607056	-0.070000	-8.159375	-0.735000
280.295013	-23.424000	1020.652039	1.973125	12.096875	-0.936250
249.429001	-20.801001	1041.635986	-0.358750	10.517500	3.053750
191.600998	-27.572001	1056.703003	-7.883750	9.174375	3.946250
205.570007	-63.440002	1029.619019	-14.717500	14.306250	7.004375
210.266998	-40.443001	992.470032	-13.028750	25.685625	-0.599375
165.126999	21.716000	967.520996	-22.483126	14.319375	2.406250
92.842003	-45.932999	947.513000	-17.885000	-5.298125	3.298750
-46.848000	-53.497002	908.533997	-21.371876	-26.621876	-0.612500
-155.428009	-105.103004	870.226013	-1.688750	-26.236876	-14.708750
-257.175995	-78.263000	976.609985	2.651250	-28.800625	-18.059999
-268.156006	-119.071999	992.470032	3.176250	-54.276249	-22.194374
-269.315002	-132.065002	1209.203003	6.978125	-29.763124	-15.548750
-290.847992	-192.943008	1075.430054	-9.913750	-55.750626	-6.772500
-294.386017	-161.100998	1173.274048	22.828751	-4.458125	-2.611875
-274.256012	-181.109009	1099.952026	6.006875	7.000000	-8.089375
-208.070999	-120.658005	1121.973022	-0.118125	39.283127	-12.276250
-157.197006	-118.278999	1055.727051	-5.005000	34.409374	-2.253125
-92.537003	-85.217003	945.317017	15.640625	32.383751	5.945625
-43.554001	-80.520004	1006.012024	35.231876	36.168125	15.666875
25.254000	3.172000	984.783997	21.708750	23.848125	18.344376
86.498001	-66.978004	979.355042	19.901875	20.269375	13.111875
115.107002	78.018997	959.895996	-14.035000	7.857500	10.635625
167.322998	-35.806999	997.044983	-6.807500	18.029375	3.959375
190.686005	60.451000	958.614990	-15.898750	-25.987499	-9.100000
219.112000	31.476000	1079.089966	14.481250	13.326250	-9.248750
188.124008	21.472000	1075.796021	-1.596875	-13.628125	-7.953750
110.471001	25.681000	1075.247070	-0.647500	4.143125	-0.660625
59.292000	-11.224000	1021.322998	-9.817500	2.209375	-1.903125
37.393002	-4.453000	1005.707031	-4.611250	5.136250	2.069375
8.418000	-47.580002	1018.517029	-1.268750	8.723750	0.831250
5.734000	-58.255001	1039.500977	-4.445000	-2.152500	-0.761250
-14.213000	-53.558002	1052.615967	-4.033750	3.206875	-1.548750
-10.675000	-24.156000	991.250000	-8.505000	6.238750	-0.857500
-13.908000	-48.799999	1010.160034	-9.086875	5.910625	3.263750
-26.596001	-45.323002	1013.027039	-5.180000	5.481875	5.464375
-22.326000	-62.830002	976.549011	-2.450000	-0.901250	7.459375
-27.267000	-53.375000	1004.914001	7.936250	4.558750	6.238750
-22.691999	-36.783001	1014.369019	3.788750	-4.746875	4.956875
-21.289000	-37.393002	1008.635010	6.601875	1.246875	5.057500
-12.078000	-31.964001	1023.885010	4.808125	-8.680000	5.866875
-10.309000	-42.577999	1038.829956	6.571250	0.411250	4.213125
-13.786000	-44.591000	1033.706055	3.928750	0.656250	3.447500
-17.202000	-19.947001	995.458984	0.253750	7.363125	2.778125
-21.716000	-22.021000	1010.281982	0.035000	-1.566250	4.200000
-18.483000	-32.330002	1039.623047	0.813750	1.207500	4.033750
-23.241001	-33.244999	1002.901001	-1.391250	-1.019375	2.970625
-27.450001	-30.073000	1010.098999	-3.819375	-1.430625	3.106250
-59.902000	-30.866001	1032.852051	-7.476875	-0.310625	3.889375
-119.255005	-47.031002	1008.635010	-10.583125	-1.666875	6.759375
-153.841995	-47.945999	1032.973999	1.303750	1.286250	8.741250
-138.531006	-15.982000	1031.448975	14.494375	-7.280000	6.956250
-60.389999	79.361000	982.710022	24.219999	9.100000	12.691875
-98.881004	25.986000	1044.686035	22.649376	6.321875	5.136250
-127.001999	10.248000	1016.199036	-2.318750	-9.677500	-10.373125
-61.243999	133.162994	940.619995	6.768125	11.445000	-5.700625
-28.609001	28.243000	952.454041	1.806875	-10.941875	5.346250
-23.607000	-73.749001	1014.064026	-1.526875	-20.842501	2.388750
29.829000	-15.677000	989.908020	13.755000	-3.731875	-2.620625
109.312004	-3.355000	980.392029	-7.210000	-31.548124	-7.284375
205.630997	70.028000	1060.790039	-0.240625	-28.494375	-5.958750
263.641998	32.390999	1094.462036	17.587500	-8.977500	-0.393750
309.514008	107.177002	1036.817017	-2.756250	9.673125	-0.017500
303.779999	8.723001	1036.390015	-41.422501	13.833750	-6.483750
317.566010	-26.657000	1039.440063	-45.412498	31.775625	-6.208125
290.360016	-92.292999	1074.332031	-14.070000	33.166874	-7.367500
274.561005	-6.100000	1021.872009	5.306875	20.593124	-1.141875
252.235001	-45.262001	999.302002	12.228125	14.931875	2.410625
216.794006	-2.806000	992.408997	10.775625	36.229374	1.596875
207.766006	-6.954000	929.091003	-1.938125	29.413124	4.799375
111.141998	-29.280001	966.789001	-48.208126	9.581250	-9.905000
-14.335000	-112.667000	839.299011	-53.751251	-13.269375	-13.606250
-105.529999	-120.902000	929.457031	-13.269375	-12.048750	-25.904375
-141.581009	-93.269005	951.966003	4.366250	-30.450001	-13.383125
-256.505005	-59.170002	1024.433960	10.552500	-51.463123	-11.112500
-341.782990	-172.386002	1026.508057	-7.800625	-48.295624	-5.630625
-412.360016	-127.856003	1115.019043	0.406875	-65.695000	-11.405625
-322.994995	-199.104004	1181.203979	4.497500	-58.301250	-5.285000
-292.128998	-206.912003	1174.250000	12.661250	-9.003750	-0.061250
-179.218002	-186.233002	1119.959961	-12.000625	-0.249375	-1.750000
-141.947006	-188.977997	1080.249023	-11.326875	18.751249	2.555000
-120.231003	-193.613998	1060.790039	16.485001	18.685625	-3.451875
-40.443001	-114.557999	1005.096985	36.076248	44.953125	-2.778125
-45.201000	-91.072998	1002.901001	34.755001	42.695625	3.101875
-11.224000	-37.393002	987.590027	28.826876	58.511250	7.468125
66.306999	-78.628998	930.494019	15.032500	41.085625	9.012500
76.920998	29.463001	963.129028	20.164375	37.218124	9.450000
144.326004	9.333000	973.864990	10.797500	38.084373	7.113750
170.373001	43.554001	1021.079041	-15.548750	-17.889376	1.780625
126.819000	-28.548000	1042.734009	10.228750	-0.336875	-5.814375
125.233002	71.370003	1031.265991	10.237500	-26.823126	-3.132500
78.263000	28.731001	1104.343994	1.706250	-6.230000	-3.066875
49.348999	32.390999	1020.530029	-5.853750	-12.075000	2.235625
18.117001	47.396999	972.523010	-12.079375	6.050625	7.936250
-14.823000	-2.745000	1015.406006	-8.960000	3.959375	12.018125
-30.134001	-21.960001	1033.339966	-1.763125	7.420000	10.867500
-27.450001	-6.954000	1012.783020	-4.493125	0.888125	9.296875
10.370000	1.464000	956.785034	-10.023125	-19.862499	8.181250
-5.063000	4.880000	971.181030	8.338750	3.491250	11.663750
-29.524000	-17.385000	1018.639038	7.695625	-8.233750	14.008750
-27.328001	-7.259000	1004.182007	10.806250	-2.651250	10.303125
-15.494000	-1.342000	1033.035034	9.003750	-6.663125	7.682500
-33.428001	-2.745000	1054.567993	1.553125	6.146875	1.890000
-38.003002	-12.078000	1043.649048	-7.450625	-2.139375	-4.786250
-30.195000	0.488000	1047.369995	-5.048750	8.071875	-9.388750
-13.298000	0.915000	1028.765015	-7.599375	0.245000	-8.618750
-20.130001	-4.636000	1036.572998	-5.315625	11.436250	-5.639375
-37.149002	-34.952999	1011.075012	-4.856250	1.951250	-4.816875
-27.450001	-3.355000	990.640015	0.796250	3.206875	-4.506250
-27.389000	-0.915000	1003.999023	-8.872500	-1.286250	-1.942500
-64.721001	-18.666000	1023.518982	-6.943125	2.253125	-1.653750
-105.224998	-28.670000	1019.432007	-8.435000	-0.840000	-2.292500
-139.384995	-17.629000	1030.717041	-2.992500	-3.276875	-6.505625
-157.867996	8.601000	1026.264038	2.900625	0.761250	-9.143750
-163.541000	-15.738000	1020.103027	-2.520000	-6.418125	-3.784375
-176.900009	-20.007999	942.877014	3.753750	-12.000625	-0.910000
-178.729996	-11.407001	1006.377991	13.693750	-11.038125	2.471875
-132.553009	-49.593002	981.367981	20.212500	3.740625	5.075000
-83.447998	-26.352001	1009.122986	20.405001	-8.443750	0.354375
17.995001	34.342999	964.104980	-3.075625	-22.540001	-6.956250
81.069000	8.357000	990.518005	-6.733125	-16.944374	0.170625
127.978004	15.677000	968.314026	-24.600624	-8.916250	-0.638750
262.360992	82.044998	918.965027	-1.855000	47.389999	17.290001
276.878998	-122.732002	946.598022	-13.461875	43.373749	2.550625
264.679016	-31.110001	1117.947021	-30.782499	-82.831879	-20.768126
305.549011	-78.140999	1125.633057	40.775002	-21.503124	-5.639375
353.251007	-7.259000	1148.874023	19.018126	-9.257500	-6.107500
377.651001	58.621002	1069.269043	-6.361250	25.808125	4.309375
322.873016	-31.659000	1018.882996	-26.114374	26.193125	6.164375
252.723007	-40.443001	1069.208008	-24.815001	9.358125	-2.896250
220.087997	15.311000	1011.624023	0.083125	43.338749	19.565001
194.956009	-117.242004	1005.950989	-5.394375	13.645625	18.046875
75.884003	8.235000	934.093018	-19.950001	7.153125	0.857500
18.971001	-17.873001	940.742004	-5.547500	6.343750	-5.057500
-91.439003	52.277000	1005.523987	8.710625	5.915000	0.214375
-109.556000	-82.472000	927.139038	37.056252	-22.483126	-11.143125
-222.772003	-8.296000	917.440002	12.639375	-27.356874	-13.820625
-280.539001	-67.466003	936.166992	-21.161875	-19.123125	-22.640625
-357.765015	-167.201004	1125.999023	-44.003750	-10.657500	-28.122499
-369.171997	-249.977997	1123.315063	-28.157499	-13.597500	-31.570000
-296.947998	-250.283005	972.889038	14.678125	-29.745625	-32.318127
-220.820007	-119.194000	1058.105957	32.051250	-37.550625	-10.920000
-163.541000	-143.899002	1138.625977	33.858124	37.541874	-1.535625
-108.640999	-68.685997	1101.537964	6.278125	-6.024375	2.047500
-45.872002	-46.542999	919.635986	10.902500	15.640625	8.019375
-47.945999	-41.053001	975.207031	12.477500	36.076248	13.650000
9.089000	-39.406002	949.403992	-5.753125	14.293125	6.160000
31.049000	-31.049000	962.458008	7.966875	24.482500	7.052500
79.726997	18.300001	975.817017	10.902500	39.541248	6.890625
118.523003	39.161999	966.117981	-2.515625	3.731875	10.867500
167.688995	-17.141001	1041.148071	13.667500	1.745625	8.351875
178.791000	35.501999	1064.510986	14.879375	-26.626249	3.145625
143.716003	29.097000	1098.792969	1.032500	4.313750	-2.143750
106.262001	76.860001	1047.248047	-15.526875	-0.476875	-5.770625
54.411999	33.916000	1035.291992	-17.443125	16.533125	2.130625
27.999001	-25.010000	1018.700012	-15.032500	3.298750	0.520625
7.625000	-29.158001	1016.382019	-4.545625	4.051250	0.157500
-14.823000	-40.077000	1018.455994	-8.435000	1.491875	-0.612500
-30.561001	-37.514999	1005.829041	0.761250	2.323125	1.855000
-38.735001	-45.323002	1022.726013	6.138125	-1.531250	3.863125
-31.964001	-43.249001	1011.319031	8.032500	-6.457500	5.530000
-21.716000	-29.036001	1018.760986	7.118125	2.721250	5.035625
-26.230000	-23.790001	999.546021	-2.143750	3.990000	4.011875
-27.023001	-47.580002	1016.320984	-1.977500	2.738750	1.925000
-42.639000	-36.478001	1027.849976	-3.320625	2.436875	-0.157500
-42.090000	-38.186001	1019.066040	-4.296250	-1.128750	-0.805000
-51.972000	-40.992001	1039.683960	-3.889375	-0.113750	-1.325625
-38.735001	-28.182001	1013.697998	-7.809375	4.886875	-1.798125
-40.564999	-36.966000	1024.800049	-3.771250	4.410000	-1.010625
-30.622000	-36.112000	1004.304016	-7.175000	1.001875	-1.614375
-20.984001	-47.763000	1016.382019	-3.972500	4.948125	-1.828750
-12.871000	-36.355999	1015.588989	-6.387500	2.056250	-2.961875
-14.152000	-47.763000	1014.186035	-3.399375	3.692500	-4.025000
-16.469999	-45.932999	1016.747986	-0.630000	1.273125	-5.066250
-38.186001	-56.791000	1004.609009	-1.430625	3.552500	-2.073750
-34.709000	-54.900002	988.932007	-6.164375	3.351250	1.085000
-13.176001	-51.300999	1027.178955	0.708750	5.709375	3.640000
30.439001	-48.739002	1043.832031	2.935625	3.443125	4.808125
89.669998	-35.624001	1058.045044	3.771250	6.575625	4.348750
133.956009	-24.827000	1039.744995	2.165625	12.998125	3.679375
166.042007	-14.945000	1050.541992	5.398750	7.415625	5.363750
137.921005	-6.649000	1034.010986	-2.655625	0.030625	9.642500
119.071999	-71.918999	1043.588013	-4.103750	2.607500	5.893125
75.762001	-63.074001	985.942993	-9.375625	-1.732500	-3.368750
51.972000	-98.514999	927.505005	-6.461875	-3.762500	-11.471250
24.400000	-57.827999	968.619019	2.397500	-8.255625	-5.670000
8.845000	9.394000	934.215027	-3.228750	-20.299999	0.210000
-35.746002	-41.480000	963.983032	17.329374	-39.493126	16.537500
-130.966995	-11.895000	996.252014	17.053749	-40.971874	26.250000
-165.798004	-60.817001	1005.768005	8.824375	-33.166874	22.325624
-269.742004	-103.821999	1056.031982	-29.067499	-24.758125	5.101250
-278.587006	-131.516006	1035.170044	-25.287500	-32.340000	-14.336875
-293.348999	-121.877998	1169.675049	-10.241875	-31.968124	-21.148750
-278.343018	-113.764999	1130.696045	17.521875	-5.355000	-12.350625
-252.235001	-63.867001	1095.620972	26.722500	19.700624	-3.027500
-183.671005	-31.232000	1065.670044	-4.471250	26.844999	4.165000
-202.031998	-105.408005	1074.820068	3.403750	27.794374	8.233750
-166.591003	-97.539001	1012.356018	23.808750	30.983749	6.658750
-75.212997	-21.837999	1042.001953	10.810625	24.985624	9.708125
-40.260002	-73.688004	985.942993	18.589375	2.961875	11.838750
-20.252001	26.291000	951.783020	33.652500	23.135000	5.271875
24.461000	71.980003	1065.243042	0.826875	-1.089375	-6.763750
74.114998	4.880000	956.785034	2.034375	9.450000	-12.801250
49.348999	54.900002	885.354004	-15.780625	-20.632500	-21.310625
271.877014	92.720001	906.398987	15.400000	56.472500	-10.911250
192.272003	38.857002	1003.816040	44.213749	-33.424999	1.277500
277.671997	188.977997	1122.704956	48.886250	-17.556875	-2.279375
268.583008	203.251999	1037.000000	12.665625	-15.076250	1.811250
248.757996	188.307007	1045.234985	-36.119999	12.429375	1.023750
223.626007	91.865997	1072.807007	-48.934376	29.513750	2.651250
181.779999	3.782000	1056.154053	-45.119373	14.070000	-2.546250
100.528000	-33.855000	1018.760986	-15.421875	18.020624	-5.455625
45.018002	2.562000	1028.643066	-9.471875	15.491875	-7.126875
45.445000	-4.941000	1038.342041	-9.218125	10.031875	-8.697500
41.846001	1.525000	1046.638062	-7.958125	6.676250	-6.409375
-30.927000	-9.028000	1052.615967	-9.677500	4.659375	-0.218750
-20.862000	-14.579000	985.455017	-11.204375	7.406875	6.033125
-177.936996	-35.929001	938.119019	-13.956250	10.224375	16.135000
-226.126999	-67.709999	948.244995	-2.480625	-17.950624	7.078750
-239.973999	-56.364002	1024.800049	8.128750	-22.780624	3.084375
-211.792007	-45.750000	1032.485962	12.621875	-7.083125	-3.443125
-188.307007	-35.441002	1001.803040	6.833750	-9.139375	-5.735625
-157.380005	-6.893000	1005.523987	2.270625	-8.325625	-8.977500
-114.192001	-5.246000	986.674988	5.866875	3.521875	-3.311875
-90.158005	-17.750999	1012.173035	2.966250	-7.717500	-0.332500
-71.918999	-9.943000	1049.505005	18.178125	9.681875	1.203125
-59.292000	12.444000	1033.339966	6.724375	-11.375000	-0.756875
-47.396999	33.123001	1016.138000	5.893125	12.341875	0.161875
-58.865002	16.348000	1041.208984	-6.006875	-3.688125	0.306250
-41.053001	-14.335000	1034.010986	-2.406250	7.647500	0.546875
-47.153000	-12.688000	996.312988	3.040625	3.097500	-1.076250
-48.556000	1.281000	946.963989	3.412500	-2.830625	-1.496250
-51.545002	10.065001	1044.807983	9.769375	6.164375	-0.420000
-34.160000	26.169001	1027.422974	-2.835000	-6.930000	-2.734375
-39.345001	34.282001	1026.812988	-3.290000	9.038750	-1.841875
-34.952999	20.862000	1023.213989	-12.350625	0.564375	-4.165000
-45.018002	8.845000	1016.869995	-7.245000	6.304375	-4.068750
-52.704002	5.246000	989.237000	-3.565625	-4.471250	-1.811250
-48.922001	1.159000	998.875000	4.116875	-2.244375	1.203125
-55.875999	-3.782000	1029.375000	5.101250	-3.281250	1.627500
-53.497002	-0.183000	1006.195007	2.633750	-2.751875	0.844375
-71.858002	2.745000	1044.015015	-0.323750	-0.726250	-1.505000
-64.660004	-5.185000	1011.319031	-7.603750	3.701250	-2.520000
-76.555000	-3.111000	1009.001038	-11.016250	-1.111250	-3.880625
-54.167999	-0.427000	966.850037	-6.746250	4.659375	0.074375
-29.829000	-23.485001	984.967041	-9.905000	4.414375	2.060625
30.622000	-43.249001	1018.944031	-15.365000	1.911875	0.420000
113.277000	-22.997000	1096.657959	-20.146875	5.845000	-0.840000
160.490997	-63.928001	1136.734985	-11.939375	-2.244375	-3.088750
163.479996	-20.618000	1083.542969	-1.233750	1.360625	1.715000
167.932999	-29.402000	1009.671997	0.441875	0.892500	11.151875
109.433998	-15.860001	942.877014	0.096250	-5.670000	14.568750
54.961002	-18.666000	908.229004	1.194375	-5.000625	8.032500
-11.529000	-54.473000	941.718018	-1.846250	-18.033751	-4.340000
-5.612000	-8.418000	1021.811035	-4.361875	-12.915000	-15.286250
-25.498001	-48.922001	1018.822021	-5.149375	-11.077500	-16.922501
-35.319000	-41.236000	1018.455994	-9.502500	-5.845000	-14.039375
-115.778000	-62.403000	978.622986	-2.826250	-13.230000	-1.601250
-192.455002	-103.516998	987.101990	0.809375	-25.344376	11.453750
-279.807007	-133.162994	1041.818970	21.918751	-25.523750	21.726250
-332.938019	-148.596008	1067.134033	18.541250	-35.870625	6.951875
-291.335999	-96.563004	1086.287964	17.364374	-16.585625	-6.842500
-249.734009	-63.013000	1131.916016	-3.893750	-9.095625	-14.223125
-229.848007	-49.166000	1090.680054	5.670000	-3.972500	-11.532500
-186.721008	-27.328001	1099.402954	13.448750	22.645000	-2.695000
-171.227005	-10.858000	1042.185059	14.048125	17.832500	7.376250
-102.358002	-4.697000	1001.132019	13.356875	37.327499	9.423750
-41.418999	29.768000	1007.842041	14.153125	23.253124	22.281876
-48.373001	-5.673000	963.434021	4.331250	25.453751	14.988750
27.755001	32.146999	1001.559021	9.747500	32.025002	-0.525000
57.096001	44.834999	944.402039	-7.713125	4.151875	-16.047501
103.273003	79.971001	966.484009	14.192500	-3.657500	-18.799376
208.925003	138.470001	958.737000	6.470625	-15.575000	-26.473125
201.483002	92.842003	1041.941040	3.955000	-6.168750	-13.864375
282.186005	37.027000	1108.858032	-31.574375	-19.013750	-16.874374
311.954010	-7.747000	1131.854980	-24.403749	8.133125	-22.365000
302.255005	13.420000	1100.683960	-24.180626	9.340625	-19.691875
343.429993	22.509001	1017.846008	9.572500	12.092500	-9.323125
320.188995	48.250999	1038.586060	35.328125	12.210625	5.114375
218.746002	63.867001	989.725037	8.806875	18.641874	21.682501
167.384003	29.036001	986.492004	-5.783750	17.539375	21.004375
110.836998	20.984001	1004.487000	-9.821875	12.455625	8.955625
-10.004000	16.775000	944.768005	-19.976250	4.991875	-3.036250
-94.367004	-7.625000	958.859009	-18.501875	-11.182500	-9.117500
-223.626007	-4.087000	936.106018	18.672501	-24.311874	-23.086876
-213.438995	64.233002	941.901001	26.814375	-14.301875	-3.950625
-282.186005	-43.066002	1024.617065	19.333124	-26.521250	7.608125
-241.865005	-0.793000	1045.357056	16.257500	-6.098750	12.967500
-198.798996	23.241001	1027.605957	-10.780000	-7.975625	17.556875
-121.817001	-26.779001	1012.234009	-6.995625	8.063125	11.703125
-55.570999	12.322001	1093.852051	-3.946250	13.654375	-6.059375
-23.912001	33.977001	1087.995972	-1.159375	21.590626	-16.270624
-26.901001	55.998001	1047.492065	-8.050000	1.898750	-15.264375
-8.845000	62.341999	999.179993	-0.056875	-0.144375	-6.811875
-18.361000	22.997000	1035.474976	17.609375	2.870000	3.272500
-4.392000	29.463001	1029.984985	10.513125	-2.856875	4.436250
-7.015000	40.382000	999.179993	4.051250	10.745000	4.379375
-13.420000	46.604000	966.179016	-5.171250	-0.936250	4.230625
-18.422001	34.342999	973.437988	-10.491250	9.716875	6.028750
-46.299000	10.919000	1044.747070	-7.490000	2.878750	-0.109375
-22.021000	36.417000	1028.338013	-4.335625	-4.488750	-3.622500
-33.062000	37.088001	1042.185059	6.278125	6.133750	-1.785000
-26.474001	60.512001	999.363037	1.946875	-3.618125	0.083125
-17.750999	50.202999	1015.893982	-1.203125	5.136250	2.113125
-32.879002	28.304001	1027.728027	-6.273750	-0.048125	2.310000
-25.375999	14.701000	989.603027	-7.783125	-1.071875	0.634375
-40.687000	14.823000	1009.244995	-4.357500	9.380000	-0.166250
-35.624001	10.980000	1017.114014	-5.438125	-4.283125	-0.140000
-35.806999	15.616000	998.936035	-0.196875	2.839375	1.540000
-35.624001	20.679001	1005.158020	-5.232500	-1.898750	4.016250
-45.262001	28.304001	1009.122986	-9.747500	1.351875	2.318750
-92.659004	8.967000	1038.159058	-4.974375	-2.900625	-2.082500
-108.945999	5.124000	1035.536011	-5.770625	-2.428125	-8.728125
-118.645004	0.610000	1027.484009	3.714375	1.951250	-10.648750
-44.896000	25.132000	1008.757019	10.845625	7.306250	-6.378750
89.914001	61.305000	1057.251953	1.627500	10.163125	-2.878750
148.962006	14.335000	1088.484009	-9.660000	5.945625	-5.862500
165.371002	-18.300001	1038.342041	-3.583125	20.387501	-6.168750
185.074005	3.721000	979.598999	-8.531250	11.764375	-0.918750
143.899002	-3.843000	962.640991	-15.999375	-9.738750	6.527500
105.957001	6.466000	934.947021	-9.607500	-17.745001	12.503750
84.545998	14.945000	918.233032	-13.011250	-23.887501	12.490625
-2.867000	-8.235000	969.717041	-32.519375	-43.540001	5.989375
7.259000	-20.679001	991.311035	-37.856876	-46.935001	-0.494375
-59.353001	-58.316002	988.749023	-2.362500	28.761250	-4.707500
-91.927002	-69.052002	1077.625977	0.984375	17.329374	-13.667500
-76.432999	-87.961998	1108.187012	-12.236875	10.745000	-16.909374
-80.520004	-142.130005	1013.332031	-8.421875	-0.665000	-12.285000
-117.973999	-139.873001	1007.842041	10.832500	-16.782499	2.012500
-215.940002	-153.720001	1043.099976	23.493750	-10.701250	9.156875
-288.957001	-179.339996	1089.520996	23.594376	-24.167500	3.613750
-324.153992	-159.149002	1070.306030	13.518750	-19.446875	-6.195000
-283.222992	-99.307999	1068.292969	9.305625	-7.367500	-6.825000
-297.313995	-89.914001	1091.350952	5.656875	13.571250	-3.316250
-223.320999	-106.506004	1035.718994	8.526875	6.273750	-1.636250
-203.984009	-23.729000	1066.890015	18.584999	37.817501	5.289375
-162.565002	-20.434999	1003.328003	-5.350625	14.061250	10.338125
-125.111000	-141.093002	1011.319031	4.020625	29.312500	-1.846250
-56.791000	-16.287001	961.908997	16.480625	12.696250	-16.760626
65.391998	149.449997	924.455017	27.230000	33.582500	-3.976875
130.173996	78.385002	892.979004	-1.754375	15.115625	3.981250
190.686005	132.431000	844.057007	13.273750	24.254999	20.256250
299.692993	56.973999	1030.961060	13.689375	11.908750	32.834373
293.105011	50.630001	1167.967041	-7.630000	20.829374	20.098749
273.890015	34.770000	1123.071045	-8.942500	2.187500	-5.271875
268.705017	84.485001	1139.662964	0.835625	-8.260000	-13.295625
264.496002	32.085999	1159.671021	15.850625	-4.720625	-20.094376
275.476013	134.444000	1016.138000	23.953125	-16.069374	-11.313750
180.865005	120.536003	944.096985	20.514376	-23.012501	0.726250
66.368004	100.528000	971.303040	13.020000	-22.478750	3.268125
63.074001	86.498001	968.375000	1.483125	-29.316875	10.771250
-47.091999	46.726002	988.444031	-10.080000	-11.392500	8.758750
-51.972000	132.431000	957.578003	-37.559376	-26.490625	13.090000
-163.906998	11.163000	1034.987061	-39.900002	-22.859375	28.621250
-156.831009	18.544001	1033.035034	-31.276875	2.835000	23.646875
-177.998001	6.893000	1068.963989	-12.250000	-11.676875	14.966875
-130.662003	-55.815002	1097.511963	9.016875	-6.833750	1.382500
-71.918999	-13.786000	1027.789062	1.111250	-10.858750	-17.504375
-35.868000	-9.394000	1009.306030	-6.033125	5.306875	-18.895624
-22.875000	-68.685997	1044.380981	-4.668125	6.868750	-13.890625
-25.864000	-28.975000	1062.437012	-3.403750	14.433125	-5.705000
-17.934000	-58.621002	1025.898071	1.977500	10.670625	-0.052500
-6.588000	-39.955002	1002.778992	-0.643125	5.893125	0.008750
2.684000	-25.375999	1007.963989	-3.771250	14.533750	-2.082500
8.296000	-30.561001	1021.079041	-17.377501	6.177500	-1.583750
-0.793000	-32.390999	1001.924988	-6.146875	11.768750	2.489375
-4.514000	-40.138000	991.738037	3.745000	6.164375	8.540000
6.832000	-43.371002	988.809998	5.123125	-2.349375	11.195625
-10.370000	-50.630001	1023.885010	9.275000	5.048750	7.857500
-10.858000	-23.180000	1018.639038	-5.919375	0.739375	3.150000
-17.750999	-26.657000	1015.406006	-7.210000	3.320625	0.818125
-21.289000	-35.746002	1024.983032	-6.982500	-1.023750	0.249375
-15.372000	-41.907001	1000.033997	-6.400625	8.203125	2.327500
-13.176001	-39.589001	1017.663025	-3.360000	2.130625	2.975000
3.233000	-39.406002	1026.812988	3.220000	-1.666875	4.300625
-2.806000	-31.415001	1027.972046	7.074375	-0.472500	6.055000
18.117001	-36.355999	991.067017	2.856875	-3.723125	5.705000
0.244000	-34.465000	1001.559021	3.556875	2.778125	3.171875
-9.638000	-30.134001	1013.575989	-5.442500	-4.681250	-0.249375
-10.797000	-40.504002	1022.970032	-3.176250	2.773750	-0.599375
-14.396000	-39.101002	1028.703979	-4.090625	-0.450625	-1.093750
-27.572001	-56.059002	1034.864990	-1.015000	1.754375	-0.288750
-4.575000	-33.611000	1010.770020	1.671250	1.811250	-0.332500
7.137000	-37.332001	1003.937988	4.431875	2.226875	0.494375
32.025002	-33.123001	1017.723999	1.999375	-0.131250	0.280000
110.348999	-14.823000	1040.354980	4.803750	4.746875	-1.063125
186.781998	-3.904000	1066.890015	2.716875	2.117500	-9.695000
232.714996	-37.698002	1055.848999	-12.801250	7.678125	-20.238750
233.630005	-42.944000	963.678040	-23.480625	3.578750	-22.680000
196.847000	-18.239000	921.161011	-17.106251	-2.520000	-14.481250
86.437004	5.856000	917.013000	-5.748750	-16.826250	-1.745625
48.494999	-68.381004	958.432007	3.430000	-19.420626	6.374375
-0.183000	-108.580002	982.466003	11.904375	-13.881875	3.298750
-9.394000	-73.078003	1039.256958	7.341250	-1.032500	-4.033750
-30.743999	-88.145004	1018.578003	3.758125	-7.380625	-6.081250
-70.028000	-92.415001	1050.907959	2.235625	-14.371875	-6.689375
-99.369003	-127.246002	1023.763000	0.494375	-20.995625	-4.055625
-165.249008	-103.700005	1048.651001	0.091875	-26.980625	1.662500
-194.834000	-68.442001	1045.234985	8.015000	-21.673750	4.558750
-230.397003	-79.361000	1100.683960	-0.188125	-9.966250	10.731875
-233.996002	-89.548004	1123.498047	-2.218125	-2.187500	6.160000
-212.158005	-110.288002	1126.974976	3.745000	3.950625	3.268125
-151.097000	-78.690002	1203.957031	4.475625	15.478750	7.214375
-138.470001	-12.871000	1085.677979	12.000625	20.886250	16.056250
-128.039001	16.592001	977.403015	8.251250	19.455626	25.458124
-101.260002	-18.177999	947.208008	6.715625	24.058125	25.116875
-104.126999	-10.980000	1049.443970	-4.445000	33.923752	18.440624
-13.908000	-10.553000	962.945984	-8.330000	51.240002	3.924375
16.469999	44.408001	913.231018	4.383750	37.323124	11.243750
121.512001	-83.326004	926.590027	59.438751	-5.958750	9.983750
178.546997	-122.427002	1041.818970	26.285000	-42.419998	-34.781250
363.864990	198.372009	1053.531006	33.101250	-22.653749	-18.436251
367.951996	114.741005	1094.096069	1.470000	-11.081875	-13.995625
340.684998	58.681999	1010.526001	-38.513126	-7.612500	-22.701876
305.244019	60.756001	1040.294067	-29.347500	3.972500	-25.239374
304.572998	42.639000	1076.406006	-16.511250	21.441875	-19.123125
289.993988	30.683001	993.690002	-5.158125	3.937500	-8.076250
219.173004	11.529000	971.364014	5.862500	2.288125	-1.198750
159.087997	39.894001	949.526001	10.263750	-3.500000	11.720625
90.829002	42.639000	975.755981	11.935000	-10.360000	23.108749
54.961002	5.307000	981.002014	8.080625	-22.378124	16.874374
-81.556999	28.487000	1047.125977	6.601875	-17.058125	6.755000
-143.289001	56.181000	1042.001953	4.650625	-17.381874	1.575000
-178.669006	42.944000	1043.222046	3.285625	-9.485000	-0.700000
-218.867996	-16.409000	1105.686035	3.141250	-8.041250	-8.260000
-157.257996	21.350000	1024.190063	-0.363125	4.913125	-13.418125
-53.008999	16.287001	1035.414062	-20.671875	6.995625	-12.853750
15.006001	-16.531000	1020.408020	-33.862499	2.331875	-11.650625
25.010000	-63.195999	1018.151001	-9.533125	18.860624	-9.362500
27.450001	-9.455000	994.117004	-11.121250	-15.211875	-11.423125
19.520000	40.199001	1053.409058	0.910000	16.073750	-6.348125
10.553000	41.480000	1034.987061	-2.760625	-2.314375	3.871875
6.954000	19.825001	1019.676025	2.948750	7.336875	5.258750
-19.153999	2.074000	1031.388062	4.401250	1.723750	1.715000
-11.163000	-7.076000	1028.826050	-8.990625	9.590000	-3.819375
-9.821000	-33.549999	1015.588989	-8.251250	7.525000	-7.630000
7.137000	-24.461000	1012.661011	-8.163750	-0.017500	-8.176875
-1.830000	-29.768000	1020.652039	-5.748750	13.934375	-5.586875
-13.664001	-35.257999	998.752991	-7.678125	3.504375	-1.299375
-11.041000	-33.123001	990.395996	4.974375	11.270000	2.638125
2.623000	-21.106001	1006.927002	4.453750	1.487500	4.191250
10.126000	-27.632999	1015.223022	7.437500	3.123750	2.826250
2.562000	-25.254000	1023.031006	2.060625	-1.290625	-0.131250
-13.481000	-7.076000	996.312988	-7.840000	1.246875	-4.270000
-31.415001	-16.714001	1008.452026	-5.783750	3.386250	-4.112500
-76.737999	-27.816000	1014.796021	-5.153750	0.061250	-4.493125
-153.720001	-10.370000	989.419983	8.680000	-8.575000	-4.086250
-214.658997	-78.750999	1052.067017	9.380000	-8.719375	-2.730000
-208.803009	-38.491001	1026.935059	12.048750	-0.669375	-4.217500
-218.746002	-7.137000	1026.508057	10.924375	6.737500	-3.626875
-190.014999	-1.891000	1072.258057	-4.725000	-2.362500	-1.015000
-136.578995	-15.616000	1027.301025	-6.811875	-2.209375	-2.550625
-78.202003	7.320000	997.898987	22.929375	7.905625	-4.786250
-16.226000	12.627000	1020.957031	11.930625	12.035625	-11.624375
63.744999	55.693001	996.801025	-7.669375	5.468750	-10.696875
86.070999	20.984001	968.375000	-12.775000	-3.539375	-4.033750
198.432999	7.686000	1015.710999	0.844375	-19.600000	1.636250
279.502014	130.845001	1025.104980	23.397499	-17.045000	11.427500
382.592010	80.886002	1039.317993	3.591875	-1.382500	15.001875
278.891998	-17.202000	1076.100952	-37.410625	-16.117500	-10.653125
298.899994	29.402000	1081.713013	-6.855625	32.143124	-18.978750
267.729004	36.844002	1004.914001	-1.697500	12.376875	-17.893749
313.601013	-73.566002	985.028015	-1.500625	-3.329375	-24.793125
261.690002	48.373001	1007.415039	18.584999	13.636875	-20.466249
240.828003	119.255005	1005.707031	11.519375	19.433750	0.000000
154.085999	33.062000	1031.631958	-11.235000	20.606251	24.180626
81.191002	0.183000	1001.742004	-15.938125	12.604375	31.714375
-12.017000	25.681000	952.332031	-16.756250	10.224375	11.825625
-115.778000	7.686000	941.535034	-7.035000	-33.494999	0.800625
-171.104996	38.186001	997.777039	4.615625	-17.080000	-2.016875
-226.066010	-14.030000	962.153015	-6.391875	-25.987499	2.852500
-320.250000	5.368000	975.023987	-6.177500	-2.520000	6.877500
-375.576996	-45.506001	1095.316040	9.301250	-10.268125	-0.993125
-364.597015	-137.860001	1132.281982	22.610001	-29.933750	-9.476250
-353.494995	-96.441002	1106.844971	38.438751	11.431875	-21.139999
-232.288010	33.306000	1079.822021	9.471875	11.239375	-24.815001
-202.031998	41.602001	1052.067017	-23.401875	26.805626	-14.035000
-141.947006	-2.318000	997.777039	-34.685001	25.125626	-10.246250
-103.700005	-65.636002	946.476013	-9.043125	44.301250	-9.170000
-78.750999	-23.485001	1019.249023	-4.593750	41.619373	-8.977500
10.675000	-54.534000	979.476990	-21.035000	0.936250	-8.933750
15.433001	-41.236000	989.054016	3.810625	9.170000	-9.878750
70.515999	16.104000	985.393982	5.298125	1.233750	-4.116875
71.980003	35.868000	989.054016	4.445000	18.536875	8.356250
34.892002	-6.649000	1048.346069	6.505625	-23.283751	8.850625
40.077000	24.827000	1106.052002	9.489375	-2.205000	11.917500
-22.326000	26.352001	1089.276978	-1.964375	-19.407499	11.913125
-16.896999	19.153999	1001.437012	-3.294375	-10.368750	14.205625
-43.615002	-8.418000	995.215027	-8.977500	3.653125	12.490625
-42.821999	-19.153999	995.398010	-9.804375	9.940000	9.043125
-46.726002	-26.840000	1010.892029	-12.617500	-8.299375	1.697500
-45.811001	-56.973999	1009.733032	1.181250	-1.745625	-3.403750
-64.476997	-32.085999	1001.803040	8.421875	-10.618125	-4.055625
-78.202003	-6.405000	1019.859009	8.544375	-4.515000	1.080625
-83.692001	-28.914000	1048.285034	3.998750	4.523750	6.658750
-68.564003	-29.585001	1031.388062	-7.638750	0.144375	7.205625
-53.618999	-47.824001	1026.568970	-13.055000	2.415000	4.843125
-49.837002	-70.638000	1010.953003	-10.294375	2.585625	1.605625
-33.123001	-44.652000	998.692017	-3.889375	0.498750	0.328125
-48.617001	-21.472000	1011.624023	3.255000	5.228125	1.583750
-50.507999	-25.010000	1001.132019	0.498750	-0.879375	2.524375
-51.972000	-17.750999	1010.221008	-0.271250	6.374375	2.642500
-59.109001	-40.260002	1010.281982	-0.525000	-4.191250	0.555625
-56.119999	-48.678001	1001.497986	-4.112500	-3.080000	-2.187500
-73.566002	-65.574997	1015.345032	-0.498750	-1.150625	-3.784375
-49.959000	-57.522999	1011.929016	-5.026875	-4.856250	-5.188750
-60.878002	-40.687000	1031.571045	-2.865625	-2.450000	-5.735625
-84.729004	-33.855000	1017.480042	-7.997500	-7.901250	-2.821875
-121.389999	-87.351997	1024.250977	-6.593125	1.933750	-1.592500
-124.013000	-105.408005	1022.299011	-6.453125	-5.639375	-4.099375
-165.126999	-88.389000	986.858032	2.996875	9.174375	-2.126250
-169.763000	-88.999001	1002.840027	1.500625	-1.343125	-0.595000
-207.460999	-115.778000	1012.661011	1.417500	8.518125	1.526875
-170.738998	-83.142998	1061.277954	3.679375	-0.306250	-2.765000
-127.917000	-76.677002	980.270020	3.469375	9.445625	-7.021875
-111.264000	-32.879002	1024.677979	4.690000	14.892500	-6.794375
-83.082001	-18.056000	946.354004	-2.716875	4.318125	-8.386875
-22.264999	-63.562000	994.299988	13.308750	12.293750	-0.341250
72.773003	32.452000	1038.036987	-3.154375	-17.906876	-2.069375
154.818008	-63.074001	1016.869995	14.371875	11.983125	4.160625
252.540009	63.440002	1037.182983	9.174375	21.131250	-7.258125
218.074997	61.061001	1124.535034	1.137500	-43.163750	-10.421250
271.084015	20.923000	1080.370972	18.536875	0.997500	-13.868750
246.501007	110.715004	1047.858032	10.272500	-5.683125	-7.612500
272.914001	158.112000	1006.439026	-12.967500	9.458750	19.844999
198.432999	-91.377998	1074.270996	-17.815001	4.655000	34.496876
204.716003	122.061005	991.677002	-20.479376	-37.283749	46.278751
115.350998	-63.684002	952.088013	14.870625	-22.767500	64.124374
-16.896999	-9.943000	942.877014	17.845625	-31.338125	43.736874
-27.267000	-42.272999	997.166992	4.838750	-29.443750	20.129375
-105.896004	-2.196000	1053.713989	0.608125	-12.783750	4.913125
-119.255005	-19.459000	1020.041992	-22.102501	-47.053123	8.933750
-163.541000	-53.313999	1025.166016	-15.120000	-7.490000	18.633125
-214.475998	-62.646999	1026.995972	-24.810625	-21.861876	29.513750
-233.386002	-120.779999	1068.292969	-40.184376	-34.811874	29.627501
-327.325989	-176.900009	1041.514038	-22.977501	6.168750	4.453750
-251.990997	-76.615997	1062.071045	1.872500	-0.153125	-23.983749
-195.322006	-14.640000	1104.466064	10.206875	24.920000	-26.512501
-171.410004	-42.212002	1122.888062	20.881874	6.864375	-20.111876
-120.658005	-44.834999	1128.682983	45.342499	23.607500	-10.443125
-46.299000	4.026000	1031.265991	28.070000	33.989376	0.993125
-31.720001	-35.929001	1052.555054	18.795000	52.758125	10.513125
38.491001	-61.122002	957.700012	6.216875	5.639375	17.828125
85.278000	0.610000	1008.695984	35.236252	13.230000	25.274376
88.450005	-31.354000	1022.116028	6.418125	29.684376	10.040625
165.919998	-26.230000	927.382996	-3.443125	3.526250	-6.291250
165.981003	-14.640000	1060.363037	-11.235000	22.185625	-24.561251
204.837997	55.875999	1000.583008	-14.043750	-13.483750	-33.656876
144.875000	35.563000	1039.683960	-16.117500	9.506875	-28.048124
79.543999	12.993000	985.393982	-22.185625	-1.251250	-21.896875
36.904999	-14.823000	1021.200989	-10.968125	-0.783125	-12.320000
14.152000	-36.417000	971.973999	-5.713750	-1.868125	-2.502500
-15.860001	-49.410000	1021.567017	3.587500	-0.463750	4.554375
-18.849001	-45.018002	1031.388062	3.928750	-2.270625	5.512500
-37.637001	-37.027000	1029.313965	1.631875	0.669375	8.032500
-30.743999	-40.443001	1011.014038	-5.521250	3.749375	10.710000
-45.323002	-57.645000	1013.575989	-10.421250	1.610000	10.718750
-56.730000	-53.680000	1006.377991	0.446250	-1.750000	5.285000
-45.567001	-54.900002	1027.605957	2.883125	-0.284375	3.250625
-28.792000	-31.842001	1012.356018	5.875625	-0.039375	3.600625
-36.112000	-37.576000	1014.369019	4.436250	-2.209375	4.646250
-21.960001	-37.698002	1005.768005	5.162500	-6.864375	2.283750
-22.875000	-37.209999	1029.192017	3.263750	-4.672500	-1.076250
-11.285000	-21.533001	1010.465027	0.656250	-3.845625	-2.541875
-22.082001	-9.577000	1035.657959	-0.581875	-1.150625	-2.318750
-12.017000	-19.398001	1001.376038	-2.292500	-3.981250	-0.910000
-10.675000	-35.685001	1024.190063	-1.684375	2.756250	0.713125
-21.167000	-37.637001	1032.729980	-3.290000	-6.256250	0.306250
-22.021000	-25.802999	1008.452026	3.198125	3.793125	-0.577500
-23.058001	-28.609001	1016.138000	-3.360000	0.126875	-1.850625
-24.705000	-35.929001	1025.044067	-4.116875	4.926250	-4.235000
-27.816000	-39.771999	1026.812988	-4.913125	3.303125	-5.866875
-32.939999	-40.931000	1014.856995	-5.779375	1.408750	-8.338750
-49.715000	-32.635002	1019.187988	-3.622500	6.671875	-8.351875
-74.114998	-44.529999	1000.888000	-12.096875	-0.091875	-6.868750
-131.089005	-61.487999	1009.671997	-12.223750	0.590625	-3.583125
-168.115997	-65.514000	1003.877014	-11.392500	-11.025000	-3.045000
-169.214005	-64.416000	1019.187988	-12.140625	-21.008751	-1.588125
-143.716003	-110.959000	1086.044067	3.088750	4.046875	2.520000
-133.041000	-18.971001	989.664001	15.898750	27.811874	8.207500
-116.753998	-44.834999	965.996033	28.170626	60.068748	21.468124
-182.328995	2.135000	1080.126953	7.161875	60.847500	11.611250
-55.570999	-39.161999	911.889038	-7.665000	30.913750	10.626875
-29.951000	-101.320999	967.765015	-12.490625	-6.304375	-0.538125
28.548000	-93.025002	1029.009033	10.465000	-26.818750	-2.450000
52.948002	-58.804001	1054.140991	5.083750	-39.786251	-5.823125
145.546005	-53.862999	979.294006	-0.866250	-38.898125	-8.435000
170.190002	-30.561001	1016.992004	6.833750	-30.283751	-6.199375
205.570007	-53.436001	1106.540039	4.939375	-3.998750	-7.494375
209.656998	-29.341000	991.311035	4.676875	15.916250	-8.876875
223.565002	-15.250000	1010.953003	6.873125	10.141250	-11.637500
238.205002	-82.349998	1071.831055	9.992500	-1.841875	-16.165625
310.489990	-18.239000	1054.567993	15.404375	5.166875	-17.670626
328.667999	93.695999	969.351013	-11.252500	-7.756875	-3.828125
271.144989	-40.992001	933.056030	-39.755627	-41.575626	8.518125
132.186996	-61.549000	883.096985	-27.737499	-15.124375	-0.367500
39.771999	-78.995003	919.026001	-14.091875	-25.213125	-17.211250
-56.364002	-25.375999	938.424011	-6.619375	-22.872499	-25.580626
-51.728001	-37.393002	963.861023	-21.805000	-58.537498	-12.521250
-193.979996	-175.802002	1110.260986	1.658125	-40.451248	3.753750
-245.464005	-201.727005	1190.292969	15.981875	-34.702499	17.959375
-243.878006	-218.867996	1219.268066	-15.723750	-70.914375	22.225000
-180.072006	-199.165009	1064.876953	-6.711250	16.161249	18.068750
-291.640991	-147.986008	1150.826050	18.296249	42.927502	8.837500
-151.768005	-94.183998	1019.187988	-3.364375	11.410000	3.075625
-119.194000	-122.061005	1098.609985	19.228125	33.201874	4.996250
-42.821999	-83.204002	1021.384033	27.444374	25.930626	3.526250
46.786999	-12.261000	892.064026	30.161249	18.081875	9.275000
75.091003	-38.186001	1007.293030	45.666248	42.721874	16.791250
73.749001	-16.469999	988.627014	-0.249375	3.421250	7.450625
107.848000	-6.100000	1056.276001	-12.490625	45.206875	-2.187500
135.664001	-8.601000	1005.096985	6.580000	8.960000	-5.149375
193.492004	92.842003	1002.535034	-29.570625	0.039375	-10.749375
181.414001	-36.539001	975.329041	-19.201876	-5.293750	-12.538750
164.578003	35.624001	1015.772034	-13.300000	-15.395625	-22.386875
227.469009	-32.939999	983.442017	-8.395625	-20.199375	-22.430626
166.285995	-47.885002	1062.864014	7.853125	6.181875	-20.050625
156.464996	-19.520000	1014.369019	-10.307500	6.951875	-15.850625
130.600998	-67.466003	996.801025	-6.768125	3.631250	-8.666875
60.024002	-102.968002	1022.786987	3.193750	10.788750	-4.650625
51.605999	-78.690002	959.468994	8.623125	-4.685625	-4.138750
61.732002	-53.741001	1007.231995	20.365625	-1.719375	-0.476875
63.744999	-36.295002	1011.867981	23.222500	-4.961250	0.105000
80.215004	7.564000	991.677002	20.912500	-8.793750	0.262500
83.570000	-7.991000	1002.535034	0.866250	-11.676875	2.716875
68.014999	-27.938000	1005.096985	-2.471875	6.916875	1.330000
59.353001	-8.845000	1035.047974	-4.007500	-6.768125	2.773750
61.061001	-0.122000	1036.938965	-8.925000	4.676875	3.561250
47.519001	-30.316999	1034.743042	-6.116250	10.438750	2.891875
62.952000	-39.040001	1016.015991	0.188125	-4.738125	1.356250
45.628002	-22.875000	1036.938965	6.142500	10.430000	-2.152500
69.662003	-14.457000	987.773010	-2.148125	-8.190000	-0.730625
59.230999	-16.226000	1023.092041	5.250000	6.868750	0.406875
68.381004	-1.403000	1016.077026	-0.778750	2.130625	1.076250
68.564003	-22.936001	1025.044067	-2.161250	3.141250	1.264375
72.895004	-1.769000	1003.755005	0.700000	0.424375	0.686875
67.222000	-6.771000	993.263000	0.100625	0.595000	0.481250
61.732002	-16.287001	986.369995	3.622500	-1.260000	-0.030625
72.163002	-0.549000	969.838989	2.992500	-6.339375	-1.478750
77.470001	-15.128000	1008.268982	2.161250	-2.148125	-1.229375
75.396004	-1.952000	1036.024048	-0.805000	-6.006875	-1.373750
92.598000	-9.272000	1020.530029	-2.056250	-1.421875	0.743750
95.343002	-4.514000	1034.376953	-1.036875	-1.579375	2.948750
123.403000	-0.854000	1040.964966	-2.756250	3.591875	3.688125
181.779999	1.464000	1050.297974	-2.848125	4.480000	1.400000
208.193008	4.331000	971.608032	-2.940000	7.481250	-1.522500
229.542999	-3.233000	992.531006	3.180625	14.726250	-3.272500
215.208008	27.816000	982.893005	-4.725000	-4.392500	-7.258125
242.962997	32.452000	966.301025	-3.644375	-9.638125	-2.725625
188.367996	10.675000	1013.027039	-3.880625	0.140000	9.086875
163.723999	-20.801001	972.767029	-8.697500	-7.953750	9.673125
103.578003	-58.926003	961.543030	0.590625	6.619375	4.020625
76.006004	-35.441002	953.979004	-5.407500	17.850000	-3.587500
65.941002	-39.284000	991.372009	-15.925000	10.644375	-8.601250
48.617001	-69.174004	1022.786987	-33.083752	-8.351875	-11.860625
-6.405000	-63.989002	996.862000	-24.027500	6.247500	-8.461250
-82.289001	-103.211998	1021.322998	-8.080625	-15.666875	9.130625
-151.889999	-137.921005	1045.540039	6.216875	-24.482500	14.796250
-171.959000	-138.408997	1076.527954	17.342501	-23.502501	13.816250
-201.544006	-148.046997	1110.870972	10.613750	-31.219999	3.508750
-197.335007	-118.523003	1115.079956	12.184375	-11.519375	-11.567500
-204.654999	-83.936005	1123.925049	14.376250	-4.646250	-13.247500
-208.436996	-71.492004	1140.456055	20.759375	10.373125	-9.016875
-177.570999	-28.853001	1072.014038	17.233126	16.065001	5.477500
-128.100006	-41.418999	1078.785034	9.362500	41.418125	22.868126
-59.353001	-30.805000	1049.139038	6.965000	20.571251	27.763750
65.331001	4.026000	1010.708984	11.908750	-5.188750	31.644375
91.805000	8.601000	1024.921997	22.601250	11.519375	24.478125
158.904999	34.160000	949.526001	-12.088125	8.439375	0.455000
186.904007	41.114002	853.450989	-3.031875	54.499374	-7.424375
236.863007	13.420000	956.541016	-32.383751	4.151875	-23.073750
302.682007	-79.788002	980.270020	-22.846251	34.965000	-19.853750
349.347015	-79.117004	951.539001	-14.000000	11.379375	-29.010626
312.808014	-31.293001	1134.539062	20.750626	9.515625	-16.677500
326.106018	31.537001	1126.547974	3.596250	13.636875	-14.048125
322.873016	-65.453003	1079.699951	1.067500	2.660000	-3.613750
284.442993	16.714001	1001.192993	5.801250	15.316875	-18.716249
254.796997	117.668999	914.572998	11.987500	22.106874	-15.570625
163.906998	-22.082001	938.851013	4.025000	-18.716249	-6.706875
29.097000	6.283000	1014.979004	-2.489375	-23.008125	-8.487500
24.461000	-32.879002	911.889038	11.930625	-13.886250	-9.126250
-137.860001	24.461000	1007.171021	23.344999	-12.324375	5.473125
-157.807007	27.389000	1030.229004	-2.673125	-16.104376	-0.525000
-158.600006	13.359000	993.324036	-6.636875	-24.430000	-0.608125
-117.608002	-2.013000	1097.207031	-10.276875	-5.503750	-0.581875
-161.100998	-38.186001	1148.020020	-9.095625	-10.718750	-4.926250
-67.954002	-31.903000	1027.057007	-5.285000	1.141875	-13.448750
-19.764000	-48.739002	1033.339966	-12.849375	-13.575625	2.721250
-28.121000	-79.543999	1015.406006	1.334375	29.754375	6.886250
4.087000	-37.271000	1019.187988	16.804375	11.554375	9.025625
-44.347000	-30.561001	1047.065063	41.444374	46.204376	5.538750
-39.955002	62.769001	1063.291016	31.758125	-1.426250	-1.623125
17.629000	81.313004	981.184998	-2.909375	-39.475624	-3.850000
25.010000	78.263000	971.913025	-8.903125	12.626250	-2.331875
5.734000	58.987000	1036.634033	-23.073750	-8.640625	1.964375
25.375999	2.562000	987.773010	-23.900625	-11.865000	2.253125
3.355000	2.867000	1041.148071	0.616875	11.781875	0.336875
27.877001	17.873001	989.359009	-2.095625	-14.560000	0.708750
39.833000	36.904999	1015.467041	12.985000	0.905625	3.088750
38.003002	32.269001	1028.765015	0.118125	-9.970625	1.750000
38.917999	51.423000	994.971008	-3.683750	-3.316250	-0.332500
35.868000	37.820000	1019.432007	-6.908125	-5.451250	-0.240625
37.942001	18.666000	1035.291992	-2.865625	-7.726250	-2.415000
33.672001	24.583000	1035.597046	2.104375	-1.443750	-4.121250
43.980999	32.208000	1012.721985	-4.191250	-12.901875	-1.386875
47.396999	17.263000	1015.710999	-0.595000	10.740625	-0.599375
55.875999	14.396000	1013.210022	1.404375	-7.686875	-1.483125
62.890999	24.644001	994.971008	0.931875	0.560000	-1.334375
63.867001	23.424000	1010.343018	1.334375	3.272500	-3.106250
67.527000	11.712000	1042.916992	-5.726875	2.843750	-1.841875
38.796001	6.954000	986.309021	-9.476250	1.776250	-1.277500
37.758999	2.684000	995.764038	0.376250	-3.062500	-0.809375
-2.196000	7.869000	1035.597046	-3.154375	-5.910625	0.161875
-70.820999	10.370000	1017.601990	-18.961250	-25.873751	2.327500
-137.798996	-14.823000	1088.849976	2.555000	16.275000	11.375000
-177.449005	-30.622000	1092.083008	-11.313750	0.371875	17.570000
-128.039001	-24.461000	1039.256958	-5.945625	40.845001	20.444374
-130.052002	9.516000	1056.398071	-14.100625	32.335625	17.482500
-161.710999	-67.282997	1002.840027	-17.088751	7.949375	6.654375
-118.278999	-122.427002	998.997009	14.533750	0.201250	-7.643125
-40.564999	-80.641998	934.337036	6.405000	-6.006875	-25.309376
121.451004	49.227001	948.062012	-3.377500	-9.353750	-14.183750
174.582001	-11.163000	985.638000	-18.698750	-33.967499	-2.948750
264.739990	-4.331000	1062.681030	-20.120625	10.666250	10.408125
280.966003	-122.000000	1046.333008	-37.016876	-30.747499	9.178750
348.066010	-83.936005	994.239014	-8.098125	-7.980000	5.280625
310.856018	-53.680000	1115.629028	34.090000	33.634998	21.511875
371.429016	-63.318001	963.251038	48.160000	15.487500	27.295626
378.809998	-75.152000	1021.079041	66.508751	7.726250	22.841875
326.716003	24.278000	1072.380005	44.511250	34.916874	14.818125
299.022003	68.259003	1015.406006	-7.721875	33.101250	17.858749
219.050995	-2.074000	1066.341064	-23.240000	27.584375	39.252499
212.219009	-53.375000	1015.588989	-45.889374	17.355625	33.096874
84.180000	6.222000	813.434998	-24.180626	-21.730625	12.184375
-21.228001	-14.518001	948.611023	-0.091875	-54.928123	-10.303125
-7.503000	62.708000	837.957031	17.885000	-55.663124	-30.953125
-34.038002	68.259003	947.757019	-7.301875	-48.002499	-13.335000
-192.210999	46.482002	1089.032959	-35.735001	-46.335625	-8.500625
-227.102997	-8.784000	1186.755005	-42.139999	-11.081875	1.220625
-327.325989	-113.642998	1219.817017	-35.735001	-21.406876	-0.468125
-311.649017	-154.268997	1180.105957	-13.890625	-15.684375	-14.105000
-233.507996	-153.415009	1113.067017	36.216251	-13.195000	-21.507500
-195.809998	-120.109001	1064.999023	38.587502	5.613125	-24.080000
-74.603004	-62.952000	1021.872009	47.271873	27.580000	-16.235624
-66.978004	14.579000	1010.160034	31.281250	47.871250	-3.045000
4.636000	64.781998	904.142029	40.783749	43.837502	12.919375
58.011002	82.959999	1053.286987	8.719375	16.240000	19.306875
62.098000	65.941002	959.468994	-12.718125	7.896875	13.549375
98.209999	68.869003	1011.257996	3.832500	19.381250	-15.255625
162.259995	77.409004	995.642029	-20.269375	-21.608126	-32.366249
183.365997	67.832001	1041.697021	-4.602500	12.674375	-32.379375
243.024002	96.563004	1018.760986	-17.600624	-6.111875	-21.826876
221.186005	12.993000	1050.724976	-15.050000	17.591875	-11.624375
214.415009	10.919000	1036.207031	-14.634375	-0.918750	-0.704375
153.292999	6.161000	1041.270020	-3.885000	7.835625	-4.598125
134.139008	10.004000	1044.320068	1.907500	-11.996250	-8.946875
83.692001	31.293001	1018.395020	8.666875	-6.811875	-9.226875
56.364002	31.598000	993.872986	-4.908750	-3.626875	-6.396250
48.799999	10.858000	1026.324951	-13.116250	3.661875	-4.453750
39.894001	-28.609001	1009.671997	-15.631875	-0.262500	-1.404375
59.963001	-42.944000	1008.147034	-12.976250	-12.455625	-3.609375
89.243004	-74.664001	1025.531982	6.934375	-3.565625	-6.540625
81.923004	-38.247002	1032.791016	4.698750	-3.224375	-2.957500
63.257000	-21.899000	966.789001	4.755625	-7.984375	2.922500
61.854000	-13.054000	1024.860962	13.195000	10.495625	0.612500
55.449001	-1.952000	996.007996	-1.754375	-11.659375	-0.437500
61.976002	-3.416000	1001.497986	7.997500	9.975000	-0.354375
67.587997	3.172000	1041.697021	2.292500	0.490000	-2.051875
83.570000	10.431000	1009.794006	3.937500	2.953125	-3.976875
82.716003	19.153999	1003.205994	2.948750	0.966875	-2.480625
84.607002	5.795000	1028.582031	-0.953750	2.961875	-0.402500
85.765999	-0.061000	986.796997	-8.010625	-3.583125	-0.214375
79.543999	-2.684000	1033.401001	-1.793750	0.354375	-1.137500
75.701004	1.464000	989.725037	-3.666250	-6.208125	-1.080625
76.250000	3.355000	1008.635010	-3.714375	1.496250	-1.684375
78.873001	-6.832000	1010.892029	-2.541875	0.214375	-3.206875
87.961998	-10.919000	1017.846008	-6.098750	-3.220000	-3.071250
78.568001	-16.714001	1026.447021	-3.097500	6.142500	-3.141250
72.956001	-13.176001	1020.530029	-6.440000	-1.098125	-2.651250
70.150002	-15.006001	1009.733032	-4.125625	5.705000	-2.331875
37.576000	-30.134001	1018.333984	-5.941250	1.925000	-2.979375
-60.512001	-32.939999	1011.502014	-11.178125	-8.006250	-0.647500
-103.944000	-57.522999	1015.588989	-4.764375	-3.924375	1.929375
-136.335007	-36.844002	1070.306030	13.601875	18.340000	10.556875
-119.926003	-32.085999	1063.962036	20.597500	39.943748	12.521250
-43.310001	-55.144001	962.702026	16.524376	45.876251	9.992500
-22.691999	-34.160000	989.237000	-23.235624	-16.113125	-19.801250
26.169001	-12.139000	1010.465027	-0.319375	2.546250	-10.758125
52.948002	14.762000	975.755981	-1.015000	37.638126	10.403750
41.968002	-79.666000	959.408020	-11.340000	-26.149376	15.417500
80.459000	-108.702003	978.806030	17.005625	-8.058750	10.298750
195.932007	12.139000	993.385010	0.555625	-34.369999	4.099375
263.459015	38.003002	1038.159058	2.139375	-26.967501	5.853750
317.139008	15.372000	1017.174988	-7.231875	-26.481874	3.290000
369.171997	27.999001	1024.129028	-7.315000	-6.335000	-1.903125
357.825989	-20.801001	1048.589966	4.808125	31.031876	-5.595625
377.651001	13.969000	1022.421021	11.812500	34.540627	-4.042500
352.580017	15.555000	951.661011	19.459999	18.812500	4.392500
310.246002	26.779001	1077.687012	8.303750	32.143124	1.443750
308.294006	89.914001	990.518005	-3.784375	0.223125	-7.441875
243.512009	73.809998	975.572998	-16.878750	3.701250	14.704375
69.479004	-27.389000	959.895996	-19.901875	3.565625	3.640000
-3.294000	-6.588000	945.927002	-11.676875	-15.211875	-7.735000
-104.981003	-36.539001	940.132019	-9.891875	-46.248123	-19.556250
-122.182999	-58.681999	922.380981	0.861875	-55.304375	-18.462500
-147.559006	-79.910004	1020.591003	-5.026875	-58.585625	-3.237500
-205.203995	-136.029999	1157.718994	24.215626	-32.921875	22.566250
-302.316010	-111.691002	1219.084961	-2.874375	-20.334999	15.898750
-321.287018	-100.467003	1110.749023	-0.686875	9.590000	5.578125
-239.669006	-79.056000	1029.313965	-7.748125	17.154375	-0.021875
-210.511002	-94.733002	1131.854980	10.460625	18.904375	1.780625
-132.613998	-50.142002	1172.297974	28.599375	59.819374	1.155000
-80.764000	4.697000	1044.015015	20.759375	41.216873	13.540625
50.569000	11.590000	964.410034	11.488750	34.820625	26.757500
13.542000	-8.662000	1057.984009	30.480625	39.978748	36.001877
140.421997	99.307999	911.096008	-8.631875	-10.902500	14.485625
175.253006	54.167999	966.301025	-11.843125	24.180626	15.662500
164.822006	33.123001	1008.208008	-34.938751	2.926875	4.816875
255.651001	71.431000	980.208984	-26.350624	10.885000	6.208125
167.811005	-6.893000	1033.035034	-30.314375	1.115625	11.147500
104.493004	-56.486000	1044.380981	-1.295000	20.803125	8.693125
57.522999	-81.069000	1048.102051	-5.989375	-10.171875	4.611250
12.322001	-105.286003	1042.489990	17.648750	8.211875	-4.641875
21.960001	-41.297001	1019.614990	22.141874	-14.000000	-11.799375
20.252001	-18.177999	975.572998	16.222500	-2.883125	-10.018750
5.612000	-1.952000	1002.656982	5.722500	8.378125	-1.986250
-7.137000	-22.570000	1037.854004	-12.941250	1.951250	4.707500
-9.760000	-29.889999	1006.195007	-6.881875	6.234375	2.148125
-6.222000	-26.230000	1009.916016	-4.821250	-5.254375	2.769375
-17.080000	-48.617001	1001.681030	-3.749375	-11.567500	-1.286250
-10.431000	-12.444000	1027.789062	9.616250	-3.535000	-6.860000
11.468000	1.708000	1032.546997	9.454375	3.123750	-4.633125
-1.586000	-1.769000	1032.119995	-1.535625	-3.933125	-3.259375
-12.139000	-3.050000	1019.676025	5.932500	6.895000	-4.326875
0.061000	3.294000	1024.677979	-2.581250	-1.386875	-4.873750
7.930000	-9.211000	1013.880981	-4.103750	0.201250	-6.545000
-7.076000	-8.357000	1030.290039	-9.979375	4.646250	-6.190625
-6.771000	-35.319000	1007.598022	-11.099375	-5.442500	-6.527500
-4.392000	-29.524000	1016.626038	-4.081875	11.458125	-6.623750
-16.714001	-32.452000	1010.648010	-3.281250	1.395625	-5.674375
-10.858000	-24.521999	990.395996	-4.366250	0.100625	-3.469375
-27.511000	-34.342999	1028.459961	2.620625	6.689375	-0.883750
-32.513000	-34.952999	996.862000	-1.653750	-7.809375	-1.036875
-39.528000	-41.663002	985.333008	-2.397500	7.625625	-0.017500
-50.935001	-37.271000	1006.255981	-2.366875	-1.360625	-0.883750
-70.577003	-10.065001	1005.890015	0.988750	2.200625	-0.043750
-104.614998	-11.834001	990.152039	-8.181250	-0.805000	-0.275625
-176.412003	-40.931000	1045.479004	-12.096875	-1.684375	-1.010625
-247.111008	-76.860001	1095.803955	-3.526250	-2.043125	-4.545625
-210.999008	-45.628002	1124.473999	9.590000	-4.305000	-8.920625
-122.732002	-19.276001	1076.467041	23.401875	-7.533750	-4.606875
-82.472000	-7.503000	1075.125000	20.781250	-0.332500	6.890625
-47.091999	-49.959000	1036.755981	-0.021875	5.849375	4.847500
-23.302000	-17.995001	963.251038	-16.773750	-7.717500	4.401250
45.750000	-78.263000	956.358032	-17.311874	-5.201875	2.113125
160.125000	-59.658001	968.802002	2.660000	-18.690001	-6.260625
286.821991	-16.226000	962.945984	31.815001	-14.297500	-8.155000
334.768005	-31.720001	969.411987	27.943125	-37.743126	-17.333750
362.035004	56.303001	935.862000	15.706250	-11.978750	-15.662500
394.182007	114.924004	955.747986	-14.245000	12.521250	-16.646875
366.365997	53.436001	1067.865967	-15.299375	37.782501	-7.695625
289.872009	57.889000	995.398010	-3.736250	49.980000	-2.953125
279.807007	15.738000	1000.827026	11.060000	13.531875	-1.811250
230.824005	115.412003	1036.511963	14.052500	16.038750	9.021250
232.104996	96.989998	1023.458008	7.043750	4.471250	16.130625
155.367004	27.389000	964.044006	0.647500	7.078750	16.226875
58.681999	22.387001	922.869019	-9.778125	4.519375	-9.196250
38.063999	50.630001	924.942993	-9.821875	-27.037500	-11.248125
-135.237000	-77.104004	1001.803040	-1.605625	-11.803750	-12.534375
-210.816010	15.799000	953.613037	15.343125	-19.451250	-6.024375
-302.987000	19.153999	1044.869019	-18.641874	-37.091251	8.933750
-482.205017	-73.749001	1166.747070	-20.396250	7.297500	3.788750
-501.481018	-14.762000	1067.134033	-25.571875	9.261875	-10.972500
-444.019012	-35.929001	1201.151001	-17.806250	-13.068125	-19.530001
-324.337006	-28.426001	1130.086060	14.822500	14.196875	-12.915000
-246.135010	-70.882004	1100.073975	5.131875	22.063126	-14.778750
-154.818008	-41.358002	1019.859009	-23.257500	-13.610625	-19.600000
-93.940002	-64.843002	973.316040	0.800625	10.867500	1.631875
-6.649000	-58.316002	928.054016	16.502501	25.532499	16.769375
22.082001	-47.396999	1041.453003	30.655624	9.288125	26.193125
60.329002	-18.422001	1027.666992	10.241875	0.748125	18.401251
105.774002	6.100000	961.116028	-2.257500	-19.595625	15.080625
131.820999	25.254000	1048.529053	-14.091875	7.673750	1.535625
162.748001	6.527000	1043.526978	-35.043751	13.068125	-5.438125
139.324005	2.196000	992.835999	-31.539375	20.238750	-8.172500
93.269005	-2.684000	1024.921997	-16.528749	16.642500	-6.492500
42.761002	-27.205999	1006.927002	-4.956875	18.068750	-2.944375
27.511000	-37.393002	968.375000	-6.899375	13.072500	4.243750
-18.849001	-88.266998	979.111023	-1.172500	3.762500	7.140000
-30.012001	-101.443001	985.882019	6.671875	-9.012500	5.355000
-36.050999	-70.698997	954.528015	1.369375	-1.863750	5.958750
-74.481003	-99.979004	994.178040	-2.283750	4.930625	4.620000
-79.726997	-96.258003	1034.193970	-1.986250	-8.093750	1.548750
-55.449001	-72.834000	1038.159058	-2.200625	-13.286875	-0.805000
-46.848000	-73.566002	1028.338013	9.730000	-0.621250	0.818125
-55.021999	-55.693001	1032.181030	1.995000	0.223125	0.061250
-61.915001	-63.013000	994.910034	4.563125	8.509375	4.515000
-48.799999	-59.841000	973.621033	3.587500	-0.511875	9.314375
-40.748001	-78.568001	1036.878052	7.284375	-6.706875	8.203125
-33.428001	-62.037003	1020.713013	9.699375	-13.072500	0.861875
-10.126000	-46.055000	983.502991	6.343750	-6.510000	-8.981875
-20.801001	-34.098999	1005.036011	3.548125	-1.102500	-14.358750
-36.539001	-17.080000	1006.317017	4.563125	-8.168125	-14.275625
-16.775000	-27.389000	1020.164001	13.623750	-12.136250	-13.781250
-7.198000	-18.177999	1033.706055	5.748750	0.739375	-12.324375
-5.307000	-26.474001	1021.505981	-3.793125	3.084375	-10.780000
-23.912001	-41.114002	1046.211060	2.318750	-1.575000	-7.831250
-3.660000	-28.243000	1033.949951	4.917500	1.828750	-5.621875
22.509001	-30.561001	1054.629028	1.955625	-6.243125	1.137500
43.798000	-20.496000	1026.385986	4.042500	2.393125	4.571875
42.577999	-19.032000	969.778015	0.743750	-3.924375	10.246250
34.647999	-26.657000	995.276001	4.488750	4.217500	10.346875
7.564000	-9.089000	1029.619019	-0.315000	1.548750	9.664375
16.714001	-14.640000	1026.568970	-6.575625	-8.806875	9.800000
62.830002	-23.485001	1066.524048	0.424375	-1.085000	9.353750
159.393005	-11.468000	1098.609985	-4.825625	12.573750	5.967500
163.358002	-44.529999	1072.318970	-6.466250	20.829374	7.791875
141.031998	14.640000	941.169006	-4.182500	16.231251	9.401875
105.224998	-19.153999	912.926025	-1.054375	0.214375	14.039375
61.915001	-43.431999	975.145996	-6.798750	4.816875	1.544375
16.287001	-39.161999	1038.342041	-3.027500	10.311875	-11.602500
5.795000	-30.927000	1036.938965	-19.053125	-1.478750	-23.961876
-13.542000	3.538000	840.153015	-22.535625	-4.038125	-24.793125
-98.881004	-14.518001	969.838989	-18.003124	18.519375	-0.266875
-180.987000	-43.126999	995.337036	7.402500	15.159375	24.403749
-258.518005	-61.732002	1035.718994	31.605000	-25.738125	46.628750
-299.326996	-89.609001	1059.326050	40.158127	-52.688126	51.463123
-285.723999	-65.696999	1026.812988	35.214375	-51.375626	39.116875
-320.554993	-4.819000	1076.711060	16.353750	-6.623750	2.546250
-260.042999	74.481003	1018.273010	-5.355000	-5.066250	-4.615625
-235.094009	78.628998	1117.581055	-16.843750	-21.319374	7.166250
-159.576004	-27.205999	1074.453979	-23.931250	-14.713125	-0.144375
-114.557999	-5.063000	1072.745972	-10.036250	27.085625	-12.670000
-68.807999	46.542999	1127.828979	-2.318750	44.869999	-5.013750
-83.692001	-14.396000	1052.615967	-22.776251	49.192501	-1.780625
-79.666000	-61.610001	985.150024	-11.746875	53.654999	-8.041250
-82.777000	-57.522999	1079.578003	-29.855000	41.317501	-8.181250
-82.106003	-73.566002	939.278015	-28.328125	-2.480625	-8.413125
-56.059002	-49.715000	1002.169006	-10.351250	-6.247500	-8.465625
26.169001	-85.278000	976.731995	11.396875	-24.045000	1.391250
98.454002	-96.441002	968.679993	7.511875	-35.415627	-10.679375
242.658005	8.601000	973.255005	29.649376	11.878125	2.393125
281.881012	-77.348000	950.562988	9.428125	-15.662500	6.728750
290.360016	-57.462002	1034.499023	6.453125	2.288125	1.561875
258.152008	-77.470001	1042.551025	10.451875	-22.798124	-1.111250
266.265015	-91.072998	1040.477051	13.470625	-2.327500	-6.177500
214.354004	-50.202999	969.411987	16.646875	10.692500	-12.228125
167.262009	2.196000	983.929993	5.425000	-5.827500	-20.041876
87.351997	-49.715000	1035.657959	-8.378125	-14.835625	-28.091875
61.915001	-6.954000	1021.322998	-5.477500	-14.678125	-27.641251
67.771004	21.716000	960.505981	-4.230625	-3.661875	-22.185625
4.758000	6.588000	933.726990	-22.001875	-13.365625	-4.917500
-41.114002	-8.479000	960.627991	-7.030625	-9.870000	9.310000
-67.282997	-19.276001	1033.218018	12.840625	7.910000	25.611250
-127.612000	-57.462002	1099.646973	0.656250	14.896875	23.104376
-144.509003	-60.207001	1057.008057	-14.555625	0.826875	3.801875
-87.535004	-85.705002	1027.118042	-5.858125	-13.466250	-4.073125
-60.512001	-80.886002	1053.348022	11.532500	-23.948750	-9.047500
-24.948999	-53.375000	1059.753052	0.713125	-9.765000	-13.536250
28.792000	-54.167999	1004.853027	-15.531250	0.402500	-14.888125
14.762000	-52.643002	1044.380981	-14.052500	-4.821250	-8.255625
23.973000	-73.504997	1071.098999	-1.347500	-2.813125	-2.821875
35.501999	-53.618999	1010.281982	12.302500	-0.100625	-0.350000
40.015999	-52.704002	1064.876953	-1.124375	3.500000	3.718750
39.345001	-73.078003	993.872986	-8.225000	3.902500	6.216875
54.778000	-70.272003	993.812012	6.461875	3.880625	8.225000
56.852001	-81.556999	1008.390991	0.048125	10.040625	4.707500
50.691002	-75.396004	985.638000	2.340625	-2.778125	-3.246250
58.987000	-33.916000	1018.395020	0.691250	5.591250	-3.535000
40.504002	-36.844002	1021.445007	-7.730625	9.699375	0.389375
57.157001	-47.702000	995.093018	4.221875	-1.535625	4.449375
57.278999	-47.275002	1026.630005	11.956875	-1.618750	7.993125
66.978004	-46.237999	1007.903015	9.480625	-1.955625	8.636250
58.194000	-61.549000	1028.643066	1.045625	-3.950625	6.663125
53.862999	-53.253002	1012.843994	-4.401250	-0.533750	2.493750
47.153000	-49.166000	1025.654053	-3.836875	4.773125	-0.691250
44.834999	-33.549999	1004.426025	-4.571875	1.435000	0.017500
49.776001	-57.584000	1010.465027	-7.892500	-5.171250	2.196250
62.646999	-53.192001	989.664001	-2.839375	4.523750	3.937500
68.076004	-72.711998	1016.077026	-3.990000	0.358750	4.803750
76.677002	-73.566002	1014.429993	-2.909375	3.758125	2.668750
86.315002	-77.958000	1026.995972	1.273125	1.706250	-1.251250
129.746994	-58.743000	1040.598999	4.545625	10.430000	-2.664375
157.746002	-35.868000	1034.193970	-1.631875	20.571251	1.194375
143.472000	-66.429001	1004.121033	-11.331250	25.445000	3.828125
121.756004	-117.486000	947.452026	-21.708750	26.761875	4.270000
112.606003	-137.555008	967.155029	-28.231874	14.192500	8.719375
91.439003	-150.669998	977.463989	-14.459375	-10.364375	12.276250
54.411999	-134.078003	1003.145020	6.177500	-3.386250	12.350625
24.948999	-97.599998	954.833008	26.302500	9.738750	7.691250
-29.889999	-19.947001	966.484009	33.761875	18.694374	6.597500
-105.712997	-21.594000	1003.450012	13.330625	11.366250	5.950000
-200.141006	-32.208000	991.494019	1.225000	-3.539375	10.176250
-238.632004	-35.501999	1086.654053	4.055625	-21.573126	10.850000
-252.173996	-34.282001	1038.281006	5.376875	-21.883751	2.489375
-231.921997	-33.367001	1023.763000	3.543750	-39.908749	0.288750
-212.524002	-44.347000	1075.857056	-5.512500	-27.663124	-3.058125
-176.533997	-69.112999	1122.217041	3.941875	-40.486252	9.975000
-141.641998	-73.016998	1126.243042	21.406876	-45.097500	17.097500
-116.144005	-17.202000	1133.928955	53.116875	10.863125	27.383125
-53.558002	15.738000	1035.230957	34.785625	-6.930000	30.170000
-1.220000	84.302002	1049.749023	14.380625	-3.508750	29.509375
-29.463001	40.931000	1053.165039	-0.485625	-1.653750	33.906250
28.792000	7.686000	981.734009	-29.575001	-66.793121	19.814375
145.790009	13.908000	1011.746033	-4.506250	-31.933125	-8.631875
167.750000	30.256001	968.924011	39.016251	29.133125	-19.792500
175.923996	36.173000	967.947998	3.950625	7.783125	-43.010624
281.759003	58.376999	906.398987	-4.221875	11.891250	-41.098751
294.446991	33.549999	896.639038	-22.504999	40.783749	-33.245625
326.106018	-5.856000	937.204041	-22.736876	39.230625	-27.960625
389.667999	-3.294000	947.390991	-35.603748	31.784374	-19.136250
402.843994	7.503000	974.414001	-41.746250	49.323750	-9.362500
426.024017	-68.930000	1069.879028	-35.468124	25.068750	10.342500
310.795013	-145.667999	997.471985	4.650625	30.581249	18.165001
254.492004	-99.612999	998.630981	38.294376	-18.681250	6.286875
172.813004	-42.334000	940.986023	28.035000	-26.219376	-9.896250
150.669998	26.535000	1002.778992	9.708125	-32.554375	-17.613750
67.527000	-30.012001	1012.966003	-4.401250	-18.545626	-15.080625
6.039000	-34.647999	999.363037	-3.696875	-6.750625	-22.159374
-74.603004	64.293999	1044.686035	12.591250	14.525000	-24.202499
-129.014999	63.257000	1035.414062	3.412500	15.544375	-14.262500
-134.871002	0.915000	1067.561035	-10.211250	-5.538750	-2.183125
-132.003998	-48.190002	1093.729980	-13.886250	4.300625	-3.657500
-73.749001	-77.287003	1055.056030	-23.944374	-5.455625	-5.118750
-32.757000	-83.264999	1014.734985	-11.169375	15.793750	-3.023125
-23.790001	-69.784004	1014.307983	-6.728750	11.646250	-1.798125
-16.469999	-42.882999	1031.510010	0.665000	6.339375	-2.121875
16.409000	-35.319000	996.923035	8.680000	-16.235624	-2.712500
41.053001	-33.244999	986.736023	21.035000	8.141875	1.211875
35.624001	-5.673000	1022.054993	19.547501	23.590000	4.637500
38.917999	-0.732000	991.432983	0.651875	-6.015625	7.450625
26.657000	-10.736000	1020.652039	-1.461250	9.852500	5.267500
26.718000	9.333000	1012.843994	-4.418750	9.283750	2.843750
15.799000	-9.272000	1024.067993	-9.178750	-6.601875	1.220625
12.627000	-6.649000	999.363037	3.084375	5.586875	-0.573125
11.468000	-5.795000	1008.390991	5.556250	4.983125	1.728125
12.871000	-0.732000	1019.492981	-0.953750	4.834375	2.270625
3.416000	-12.627000	1034.133057	-2.778125	-0.914375	4.628750
7.686000	-21.960001	1034.072021	-5.818750	-2.205000	3.521875
-3.416000	-18.361000	1010.953003	8.111250	5.928125	1.999375
-0.244000	-9.028000	1006.317017	10.858750	-1.881250	1.251250
10.370000	0.915000	1007.842041	1.260000	-3.823750	0.332500
3.416000	-8.845000	1049.139038	0.420000	7.761250	-0.634375
9.516000	-2.379000	1025.104980	-6.925625	-3.189375	-2.148125
7.198000	-12.627000	1026.812988	-2.008125	8.238125	-1.023750
10.248000	0.793000	997.471985	-3.758125	1.260000	-0.643125
-0.915000	-12.566000	1014.491028	-1.561875	0.542500	0.052500
16.836000	-10.980000	1002.656982	0.424375	-3.793125	-0.468125
11.285000	-8.113000	1006.012024	-1.203125	-2.786875	-0.122500
22.082001	-2.623000	1007.476013	-5.140625	-5.276250	-1.518125
85.155998	-3.904000	1061.400024	-6.033125	4.633125	-5.560625
86.010002	-12.688000	1040.964966	-7.201250	7.940625	-8.951250
94.367004	1.830000	998.814026	-13.094375	5.040000	-6.798750
120.841003	-14.640000	998.814026	-14.218750	14.879375	-4.900000
128.039001	-38.247002	951.294983	-17.049376	10.902500	-2.025625
112.179001	-55.937000	956.296997	-16.091249	15.623125	-2.384375
87.840004	-56.119999	968.679993	-8.771875	11.200000	-0.975625
51.240002	-71.370003	971.729980	-10.355625	3.088750	2.021250
16.958000	-81.374001	958.066040	-7.481250	-8.662500	2.353750
-30.073000	-94.672005	1014.247009	0.984375	-11.449375	8.509375
-86.925003	-109.433998	1021.384033	8.356250	-14.144375	11.541250
-154.208008	-89.914001	1057.312988	7.774375	-24.959375	10.106250
-214.110001	-78.385002	1064.755005	9.419375	-31.311874	8.041250
-193.003998	-70.882004	1040.843018	12.761875	-31.395000	3.880625
-196.908005	-42.882999	1144.359985	-5.936875	-9.856875	-8.421875
-180.742996	-66.368004	1087.508057	-21.853125	-16.865625	-11.668125
-161.772003	-91.256004	1116.056030	-12.836250	9.406250	-1.645000
-186.294006	-98.209999	1091.900024	-10.381875	5.582500	10.434375
-187.391998	-114.802002	1065.364990	-3.609375	3.058125	20.693750
-184.403000	-128.832001	1019.798035	8.653750	25.663750	21.682501
-175.070007	-106.567001	1037.305054	16.008125	18.073126	8.981875
-97.904999	-35.075001	1024.312012	8.382500	25.882500	-12.556250
-76.799004	-90.219002	932.080017	15.246875	16.410625	-8.946875
-56.059002	-56.547001	950.684998	4.965625	15.968750	-22.693125
98.209999	-64.050003	908.595032	23.686251	9.813125	-12.740000
182.024002	-36.173000	951.661011	15.273125	18.357500	-16.979376
287.127014	-36.904999	1058.045044	31.845625	-25.313749	-3.911250
326.899017	35.685001	988.200012	10.801875	14.030625	-1.334375
396.011993	58.865002	1037.427002	-28.485624	-5.875625	-3.338125
366.731995	-5.063000	1112.884033	-37.966251	2.261875	-10.451875
308.537994	-34.587002	1068.415039	-4.431875	14.555625	-18.930626
225.578003	28.182001	1037.975952	2.257500	13.081250	-13.606250
145.240997	-10.492001	1009.549988	3.666250	15.640625	-6.737500
34.282001	-57.889000	965.080994	-2.541875	5.547500	-7.091875
-6.466000	-49.959000	991.311035	-17.858749	-10.438750	-19.040001
-42.882999	-43.920002	957.212036	-3.946250	-23.953125	-34.391876
-47.885002	65.086998	1050.237061	8.255625	1.461250	-14.682500
-116.510002	-69.417999	1069.208008	-1.946875	18.668125	15.098125
-174.947998	-130.966995	992.408997	13.855625	16.051874	27.930000
-202.764008	-105.957001	1000.338989	18.641874	-9.135000	23.559376
-179.706009	-109.861000	979.598999	15.758750	-13.873125	7.306250
-122.854004	-46.360001	992.043030	-0.441875	-15.176875	-12.713750
-81.556999	-34.831001	1000.156006	-5.070625	0.052500	-17.828125
-62.646999	-24.644001	1040.660034	-3.745000	-6.645625	-14.857500
-51.056999	-9.089000	1047.308960	-4.786250	-3.718750	-10.486875
-52.948002	-19.337000	1064.876953	-4.948125	10.154375	-4.803750
-53.253002	-9.272000	1050.603027	5.670000	11.493125	1.995000
-66.063004	-3.477000	1053.469971	27.068125	21.809376	8.631875
-46.421001	0.732000	1020.468994	13.588750	-1.710625	8.540000
-24.339001	12.261000	999.057983	8.531250	3.027500	10.863125
-45.018002	15.677000	1020.895996	9.738750	27.584375	11.663750
-26.291000	19.520000	988.017029	-8.518125	-11.090625	13.768125
-35.136002	2.501000	982.161011	0.765625	6.755000	12.083750
-31.110001	9.028000	993.263000	-7.201250	-5.687500	8.225000
-37.698002	2.745000	1022.177002	-10.185000	0.437500	4.515000
-29.219000	7.015000	1004.059998	-8.054375	-1.395625	1.238125
-35.868000	0.305000	1011.684998	-8.190000	-10.158750	0.962500
-37.453999	-1.037000	1036.268066	3.412500	9.721250	-2.038750
-37.942001	27.023001	1032.546997	5.770625	-10.985625	-2.598750
-20.374001	30.195000	1007.109985	6.370000	-8.513750	-1.102500
-29.768000	13.542000	1018.090027	7.936250	2.883125	0.415625
-40.015999	5.551000	1023.945984	-0.363125	-0.231875	0.367500
-30.561001	-10.309000	1019.066040	-3.915625	0.966875	1.356250
-38.003002	-10.004000	1021.018005	2.655625	2.594375	3.465000
-22.143000	14.213000	992.653015	-4.042500	-4.786250	4.746875
-30.073000	14.396000	1000.156006	-5.473125	-1.233750	6.737500
-4.209000	10.187000	1004.669983	-8.032500	-4.453750	8.723750
46.360001	7.625000	1072.685059	-16.677500	1.408750	9.931250
101.808998	-29.707001	1062.254028	-11.095000	-3.771250	4.781875
124.806000	-9.028000	989.908020	-13.400625	1.312500	0.791875
151.828995	-8.601000	942.694031	-15.483125	1.575000	1.649375
155.916000	-35.319000	937.570007	-15.281875	-8.220625	7.297500
129.076004	-43.675999	928.603027	-8.920625	-23.913750	11.025000
112.544998	-57.218002	961.970032	-6.667500	-36.850624	4.598125
83.326004	-83.752998	992.043030	-6.523125	-22.780624	-2.975000
66.856003	-73.200005	1017.236023	2.030000	11.108125	-10.513125
-7.503000	-62.220001	1053.165039	-6.295625	5.455625	-10.412500
-57.827999	-91.195000	1054.263062	-6.514375	-7.328125	-9.476250
-116.510002	-89.487000	1051.578979	1.146250	-8.251250	-4.865000
-155.428009	-87.473999	1070.794067	3.010000	-23.056250	1.076250
-166.225006	-108.030998	1063.901001	8.741250	-21.966875	2.896250
-183.731995	-87.413002	1089.032959	10.561250	-8.456875	-0.131250
-189.587997	-83.875000	1103.978027	-0.612500	-6.120625	-4.431875
-171.654007	-92.842003	1072.135986	-9.703750	12.560625	-8.610000
-193.675003	-90.219002	1114.652954	7.157500	15.382500	-3.150000
-174.277008	-74.359001	1085.433960	-2.231250	20.698126	2.056250
-141.947006	-64.843002	973.499023	14.708750	73.106247	6.457500
-152.744003	-60.146000	988.200012	-3.670625	5.110000	4.051250
-68.014999	-38.796001	1006.927002	-4.313750	4.112500	13.199375
-99.735001	-89.121002	1021.384033	-0.433125	-2.152500	5.271875
-48.312000	-17.568001	1018.578003	32.720627	37.633751	-8.588125
3.843000	26.047001	924.088989	-8.833125	-33.529999	-41.930000
97.661003	-24.888000	951.966003	50.798126	6.470625	-34.540627
250.954010	146.278000	1066.828979	25.598125	-13.378750	6.155625
321.531006	27.694000	988.078003	19.389999	26.468750	31.692499
341.661011	-6.832000	1019.127014	-13.943125	-23.673124	16.826250
371.002014	10.370000	1139.419067	-16.126249	23.309999	6.536250
320.127991	-16.165001	1021.505981	-30.056250	11.055625	-11.882500
305.183014	-2.013000	984.783997	-16.856874	9.699375	-8.338750
232.166000	-55.083000	973.804016	2.778125	23.318750	2.441250
143.350006	-52.094002	958.066040	-4.523750	9.301250	12.079375
139.507004	-85.948997	1016.747986	11.593750	9.156875	8.050000
58.681999	-27.267000	1081.530029	12.131875	1.557500	5.656875
34.342999	-17.812000	979.476990	-11.917500	8.321250	-2.380000
-111.386002	27.145000	959.408020	-23.056250	11.287500	1.806875
-165.065994	-12.871000	974.902039	-11.173750	5.967500	8.697500
-256.078003	-3.050000	1004.304016	-8.815625	0.848750	8.106875
-244.305008	-34.770000	1025.958984	-11.641875	-2.056250	4.913125
-238.632004	-76.311005	1069.452026	1.351875	14.621250	2.948750
-173.544998	-64.050003	1039.989014	-5.661250	3.561250	-6.505625
-162.809006	-52.764999	994.666016	-5.836250	6.899375	-9.139375
-145.302002	-90.829002	1016.809021	-0.936250	-0.796250	-14.026250
-145.302002	-100.040001	1012.416992	0.494375	-0.170625	-15.023750
-123.159004	-73.016998	1026.141968	0.953750	3.885000	-9.043125
-100.833000	-59.170002	979.049988	1.872500	2.253125	-4.414375
-80.764000	-55.265999	1004.975037	10.311875	3.390625	1.903125
-69.540001	-51.300999	1019.614990	6.002500	-2.410625	1.522500
-57.218002	-61.549000	1007.476013	10.915625	-13.400625	1.505000
-45.567001	-42.028999	997.593994	9.034375	-8.736875	-0.883750
-47.763000	-26.047001	963.067993	12.490625	1.513750	1.706250
-51.240002	-15.006001	1039.867065	2.248750	-5.075000	1.977500
-41.723999	-24.888000	1012.051025	-4.900000	-4.781875	0.179375
-58.499001	-23.058001	1029.436035	-2.581250	3.346875	1.408750
-37.698002	-23.668001	1029.313965	-7.713125	-3.141250	2.196250
-36.600002	-37.453999	1018.273010	-1.391250	3.062500	1.933750
-41.114002	-21.410999	1015.467041	3.810625	6.702500	2.467500
-32.208000	-20.984001	997.898987	0.236250	-9.808750	2.314375
-53.070000	-35.196999	1019.492981	11.891250	-0.188125	1.435000
-35.624001	-2.379000	1001.986023	-1.430625	-8.369375	1.938125
-43.798000	-21.228001	1022.116028	-8.413125	-2.152500	3.101875
-58.865002	-31.964001	1019.187988	-8.920625	2.091250	0.004375
-113.033005	-57.706001	1023.458008	-17.298750	-7.367500	-1.461250
-181.109009	-47.945999	1008.695984	-16.983749	-17.351250	-5.180000
-195.139008	-63.013000	1029.680054	-13.103125	-16.550625	-8.382500
-201.971008	-80.641998	1003.389038	12.044375	17.631250	2.165625
-188.977997	-71.675003	1041.453003	12.166875	34.041874	-1.719375
-152.865997	-10.858000	1008.147034	1.470000	6.895000	-11.278750
-160.307999	-50.935001	1037.365967	-8.211875	-15.968750	-5.516875
-79.300003	-69.662003	983.747009	-12.630625	-26.818750	-0.993125
-56.486000	-100.405998	959.408020	-30.073750	-26.683125	-12.521250
77.165001	-102.541000	881.083984	-4.029375	-51.485001	-11.256875
218.684998	-54.290001	983.929993	15.168125	-43.526875	-2.887500
327.265015	-63.318001	1001.924988	19.267500	-21.651875	-1.312500
405.833008	-5.429000	1089.338013	13.024375	-4.392500	-5.337500
423.889008	17.323999	1030.290039	2.279375	-7.726250	-1.443750
447.923004	-57.157001	1039.379028	-18.156250	9.051875	-5.823125
366.854004	-51.118000	1045.600952	-16.948750	43.658127	-11.116875
396.865997	-44.774002	984.113037	-16.708124	27.768126	-0.157500
267.424011	-111.386002	898.773987	11.598125	36.509377	8.824375
250.893005	-85.583000	1043.832031	26.486250	51.222500	-0.896875
196.847000	66.856003	887.367004	-9.629375	13.098750	-6.938750
161.466995	-43.859001	874.984009	-6.912500	-10.788750	1.159375
35.441002	-110.288002	971.729980	-7.122500	-6.720000	-4.825625
17.202000	-78.690002	1101.537964	10.591875	4.335625	1.032500
-70.089005	-113.887001	1058.899048	-5.394375	-31.714375	-6.466250
-137.677002	-93.513000	1043.709961	-4.716250	-24.189375	-3.587500
-223.503998	-154.695999	1042.185059	-11.865000	-32.729374	-1.036875
-293.287994	-118.889000	1047.125977	0.503125	-23.441250	0.297500
-301.278992	-24.766001	914.572998	27.689375	-31.613750	7.595000
-280.234009	-84.057999	1025.714966	60.173752	-47.376877	18.178125
-206.302002	-21.533001	1144.604004	39.405624	-2.961875	0.249375
-152.988007	7.015000	1122.765991	12.219375	4.200000	1.273125
-122.305000	-23.363001	1131.306030	-10.045000	-5.193125	-0.087500
-47.580002	-9.638000	1083.848022	-34.234375	25.843124	1.649375
-27.023001	-28.609001	1116.971069	-57.837502	34.076874	9.191875
0.305000	-126.636002	1034.803955	-33.433750	25.930626	10.928750
50.202999	-94.306000	1005.645996	-9.401875	40.810001	6.724375
82.349998	-105.652000	972.096008	6.186250	42.354374	4.016250
130.235001	-21.289000	969.229004	8.505000	32.742500	-0.048125
169.945999	-117.363998	998.447998	28.726250	2.966250	-1.771875
237.533997	-24.461000	1009.306030	44.073750	28.148750	9.170000
164.089996	42.212002	1005.402039	7.643125	22.076250	10.819375
144.753006	-36.234001	1034.376953	-31.591875	17.346874	0.131250
12.871000	-23.180000	1022.543030	-4.178125	-0.940625	-5.105625
66.124001	-3.355000	942.023010	1.286250	-4.313750	-10.018750
23.912001	-20.923000	949.648010	4.703125	-0.603750	-14.402500
14.274000	-13.481000	966.179016	-8.303750	-14.113750	-19.538750
-31.964001	-20.069000	1007.171021	-13.706875	-9.051875	-13.969375
-25.559000	-57.035000	1010.281982	-11.064375	-8.098125	-8.736875
-36.355999	-74.724998	1032.546997	-1.833125	-8.133125	-4.891250
-19.580999	-86.925003	1030.961060	5.110000	-10.863125	-0.161875
-27.938000	-86.863998	1042.978027	4.790625	-3.530625	2.603125
-11.224000	-69.845001	1033.706055	6.689375	-7.201250	7.665000
-11.773000	-50.386002	1020.041992	2.187500	-3.705625	11.396875
-0.122000	-60.146000	1024.983032	5.376875	1.745625	13.553750
26.840000	-39.406002	1035.780029	5.241250	-2.957500	12.648125
6.954000	-43.310001	1009.976990	3.784375	-2.821875	11.230625
14.701000	-27.877001	1005.707031	5.503750	0.126875	8.570625
11.102000	-38.063999	1015.101013	3.360000	-1.531250	5.538750
15.372000	-32.695999	1019.676025	6.020000	0.179375	1.846250
21.350000	-18.056000	1007.598022	0.354375	-0.809375	-0.778750
8.479000	-23.302000	1000.949036	-1.627500	1.653750	-1.452500
2.684000	-30.988001	1009.062012	-7.157500	-3.001250	-1.032500
-9.699000	-40.138000	1021.811035	-3.880625	3.298750	-0.726250
-3.721000	-38.917999	1026.141968	-4.340000	0.371875	-0.315000
0.854000	-34.952999	1030.350952	-2.957500	7.170625	-0.831250
8.540000	-35.746002	1025.531982	-2.979375	3.106250	-1.050000
5.795000	-38.063999	1015.467041	-3.771250	10.005625	-2.086875
-10.248000	-60.268002	1012.173035	-10.093125	5.451250	-2.366875
-19.764000	-77.104004	1013.880981	-6.965000	5.219375	-3.758125
-24.461000	-61.854000	1021.140015	-0.647500	-0.923125	-3.206875
-32.330002	-66.794998	1030.838989	1.461250	-4.716250	-0.739375
-42.577999	-62.952000	1041.635986	3.311875	4.843125	2.345000
-88.816002	-46.604000	1031.388062	-2.835000	0.879375	3.626875
-128.893005	-48.007000	1030.656006	-6.072500	6.422500	3.998750
-155.977005	-61.183002	1047.369995	1.715000	3.836875	9.318750
-142.679001	-53.862999	1067.255981	-0.498750	4.099375	10.473750
-101.687004	-96.746002	999.668030	-8.207500	-18.921875	9.721250
-58.499001	-79.117004	974.963013	-4.278750	-17.793125	-1.325625
-9.516000	-5.124000	928.664001	19.022499	33.613125	4.768750
67.404999	-86.437004	926.346008	-9.476250	-9.314375	12.215000
94.793999	-151.341003	1028.765015	-28.516251	-45.880627	-1.491875
208.070999	-115.960999	1025.348999	-20.168751	10.198125	-9.095625
280.173004	-40.077000	1009.367004	-41.584373	-11.090625	-9.909375
293.714996	-153.110001	1040.904053	-20.365625	-2.988125	-3.723125
322.324005	-183.792999	1109.041016	9.673125	5.061875	-6.475000
360.083008	-69.845001	989.176025	24.574375	6.160000	-0.262500
295.911011	-152.438995	1035.718994	11.055625	27.225624	6.650000
223.565002	-126.026001	933.788025	2.406250	34.768124	-1.715000
195.016998	-105.408005	945.682983	22.710625	35.078751	2.651250
52.459999	-142.313004	994.544006	27.387501	25.878124	3.014375
120.169998	-57.218002	982.283020	31.228750	35.861874	3.093125
-39.589001	-47.702000	962.885010	-1.198750	-32.891251	20.177500
-138.287003	-42.944000	957.028992	-1.986250	-5.578125	18.300625
-276.330017	-76.006004	1071.160034	-18.331249	-28.485624	13.492500
-354.653992	-63.013000	1011.319031	-38.793125	-36.785000	2.778125
-303.779999	-60.512001	935.984009	-45.657501	-34.020000	-4.033750
-401.502014	-91.987999	984.783997	-3.670625	-3.898125	-11.173750
-465.063995	-93.940002	1147.714966	35.332500	0.402500	-24.674999
-324.398010	-64.233002	1053.286987	26.547501	-35.354374	-29.089375
-262.117004	-50.264000	1055.300049	18.169374	3.132500	-24.206875
-182.145996	-75.762001	1044.015015	15.645000	3.066875	-10.648750
-164.334000	-108.030998	1070.062012	9.196250	16.056250	-7.301875
-122.549004	-89.669998	1042.307007	2.003750	8.981875	-9.266250
22.021000	-22.570000	1009.855042	-7.350000	-26.013750	-15.710625
37.453999	16.958000	1059.386963	-6.566875	29.238125	-8.369375
76.006004	-74.481003	1046.150024	-11.418750	9.073750	1.115625
147.925003	-84.912003	985.577026	5.766250	23.817499	3.014375
147.376007	-84.485001	1026.508057	3.364375	4.270000	-2.200625
168.360001	-34.587002	1040.904053	11.073125	45.880627	-3.233125
147.803009	-16.226000	1021.262024	1.426250	3.587500	1.461250
117.120003	-16.287001	969.778015	-12.315625	9.161250	4.248125
71.370003	-22.387001	1003.328003	-5.810000	-2.830625	8.977500
45.079002	-22.875000	1001.864014	4.646250	-1.618750	14.564375
13.908000	-43.371002	977.342041	9.673125	-12.341875	17.543751
-17.750999	-72.041000	972.705994	10.635625	-6.501250	9.270625
-34.403999	-73.566002	991.189026	13.671875	-3.985625	0.879375
-26.657000	-9.943000	1057.374023	2.555000	4.834375	-5.171250
-33.367001	10.309000	1073.722046	-21.433125	6.846875	-5.595625
-39.528000	-19.215000	1058.655029	-11.081875	6.501250	2.563750
-56.608002	-33.000999	1065.364990	-13.006875	4.580625	2.590000
-49.105000	-74.542000	1000.400024	-1.662500	0.901250	0.984375
-49.227001	-61.854000	979.476990	4.698750	10.136875	-1.308125
-48.434002	-55.875999	980.208984	1.268750	-5.302500	-1.238125
-44.957001	-54.961002	1001.986023	3.535000	2.541875	-0.700000
-49.227001	-58.255001	1018.090027	2.336250	-1.885625	0.485625
-32.757000	-50.874001	1029.253052	3.543750	-0.039375	3.097500
-34.038002	-47.091999	1035.718994	3.425625	0.783125	2.878750
-23.058001	-50.630001	1007.963989	1.732500	-5.140625	2.913750
-27.450001	-15.250000	997.106018	7.218750	2.358125	2.301250
-20.007999	-25.620001	1005.585022	1.881250	-1.443750	3.237500
-36.722000	-35.929001	1012.661011	3.237500	-0.822500	3.097500
-26.840000	-29.036001	1033.828003	-1.115625	-2.296875	0.940625
-41.174999	-35.257999	1025.410034	-1.404375	3.950625	-0.848750
-35.563000	-30.500000	1024.190063	-4.375000	1.496250	-2.349375
-30.316999	-33.367001	1009.976990	-4.913125	-0.087500	-2.738750
-29.036001	-29.951000	996.434998	-5.267500	-0.358750	-1.211875
-19.580999	-47.763000	1003.816040	-5.149375	1.229375	1.610000
-42.272999	-58.011002	1022.786987	-1.019375	0.170625	1.701875
-113.887001	-54.656002	1023.031006	-6.094375	-8.745625	0.739375
-167.201004	-100.284004	1051.030029	-9.852500	-17.683750	4.961250
-186.416000	-84.119003	1073.234009	3.679375	-2.436875	4.856250
-145.850998	-2.013000	1038.098022	12.792500	12.845000	10.521875
-122.610001	-34.342999	995.642029	13.973750	-5.022500	13.269375
-122.061005	46.116001	963.556030	14.043750	-11.576250	8.347500
-126.086998	-79.238998	1015.283997	-25.156250	-50.216251	3.526250
5.124000	-136.335007	941.413025	-4.025000	13.076875	-5.451250
118.828003	-100.772003	1044.197998	-3.469375	-49.538124	-3.985625
214.658997	-26.108000	1008.330017	-14.004375	-9.038750	-5.735625
321.713989	-99.857002	913.109009	-6.803125	-17.994375	-2.712500
370.757996	2.989000	1016.931030	7.083125	23.940001	3.618125
379.359009	-29.829000	1038.646973	11.816875	23.476250	14.201250
322.201996	-105.591003	1025.531982	35.752499	15.465625	20.356874
337.696014	-13.603000	946.171021	64.579376	40.525623	19.783751
256.993011	-35.685001	992.408997	26.836250	40.915001	9.931250
210.755005	41.723999	1064.206055	-52.915627	41.046249	-5.175625
199.287003	24.766001	1000.643982	-69.103127	45.014374	11.392500
147.863998	-148.839996	1116.787964	-33.376877	0.118125	23.703751
-28.121000	-93.818001	979.171997	-0.700000	12.910625	-18.256874
0.610000	-54.595001	975.817017	26.350624	-22.176874	-41.776875
-129.869003	16.409000	1064.510986	14.835625	-38.508751	-54.092499
-123.769005	-59.658001	927.871033	-5.748750	-31.561251	-58.891876
-169.945999	-33.977001	933.178040	-23.795626	-26.031250	-59.259377
