AccX[mg]	AccY[mg]	AccZ[mg]	GyrX[dps]	GyrY[dps]	GyrZ[dps]	
34.465000	-79.422005	1245.254028	0.883750	-2.226875	-3.088750
27.145000	-5.734000	996.496033	0.883750	-2.226875	0.000000
-29.463001	32.635002	761.523987	12.057500	8.071875	-22.868126
37.271000	86.070999	1064.145020	-10.600625	7.533750	-21.621250
27.145000	4.636000	990.457031	-21.931875	10.797500	-0.910000
-5.856000	12.383000	950.684998	-13.619375	45.053749	20.269375
-36.722000	-3.172000	968.497009	-9.406250	25.746876	33.691875
-49.227001	-19.093000	1019.432007	-2.590000	25.361876	38.718750
-53.924000	7.930000	951.661011	1.316875	20.702499	33.346249
-79.848999	6.100000	986.065002	9.835000	23.506874	29.754375
-96.989998	21.716000	1012.112000	20.895000	21.026251	16.051874
-103.883003	36.722000	1014.429993	28.853125	18.698750	-1.360625
-97.661003	69.723000	959.225037	28.209999	13.186250	-11.563125
-119.987000	30.195000	1014.002991	-8.719375	8.719375	-11.961250
-132.309006	20.679001	1018.882996	-16.406250	2.051875	-9.034375
-125.111000	16.836000	1006.927002	-5.665625	1.045625	-5.184375
-141.641998	39.161999	998.020996	15.780625	-1.946875	-0.013125
-117.425003	51.240002	997.716003	23.213751	-14.507500	-6.006875
-102.601997	55.449001	920.978027	-7.634375	-25.733749	-12.805625
-92.537003	41.723999	1023.763000	-6.881875	-26.705000	-16.327499
-67.161003	40.504002	1029.863037	9.104375	-19.648125	-15.264375
-50.874001	27.877001	1067.805054	-8.115625	-0.476875	-5.556250
-62.403000	36.539001	1026.447021	-1.850625	13.553750	1.890000
-89.731003	60.817001	983.869019	9.760625	18.160625	-0.616875
-124.195999	48.494999	1008.147034	0.376250	20.103125	-5.223750
-113.764999	49.105000	1008.635010	7.205625	20.558125	-5.232500
-145.180008	-47.214001	1000.949036	2.380000	18.453751	-4.335625
-125.111000	161.100998	996.984009	2.008125	16.743126	2.296875
-181.231003	112.606003	929.091003	-4.270000	15.203125	-12.341875
-195.566010	27.145000	998.509033	2.454375	6.545000	-8.006250
-140.117004	52.154999	1024.006958	5.442500	-6.527500	-6.724375
-153.048996	50.630001	984.113037	2.865625	-18.567499	-9.095625
-79.422005	59.475002	983.807983	-5.477500	-26.245625	-4.746875
-241.132996	95.831001	999.668030	-21.796249	-24.154375	8.443750
7.442000	60.389999	1056.214966	-32.768749	-17.933125	6.588750
-120.963005	6.344000	1046.333008	7.341250	-47.928123	-29.671249
-85.583000	21.960001	1249.036011	-17.570000	52.688126	5.066250
-140.727005	-21.899000	1117.214966	-28.971251	51.913750	-2.970625
-135.237000	-18.117001	1043.405029	-31.062500	15.688750	-9.410625
-142.069000	-124.806000	1118.739990	-35.389374	5.976250	-18.121250
-211.365005	-69.479004	1046.211060	2.248750	-2.143750	-3.346875
-91.377998	-55.021999	1127.097046	9.161250	-42.581875	-2.712500
-131.699005	-56.119999	941.718018	13.693750	-13.934375	-3.373125
-62.403000	-30.805000	899.689026	-13.234375	13.908125	2.756250
-226.371002	-0.915000	1046.821045	4.182500	-9.428125	6.387500
-93.878998	-95.891998	1074.576050	-12.661250	-20.387501	6.475000
-50.874001	-64.171997	993.324036	-1.474375	-33.232498	15.133125
-110.898003	-61.061001	1181.326050	12.385625	-85.579376	10.141250
96.441002	-85.583000	1011.746033	18.948126	-122.976875	2.996875
123.342003	-72.101997	997.593994	24.933125	-52.718750	-6.597500
173.179001	34.038002	910.059021	17.618126	11.025000	1.942500
26.901001	-73.566002	1016.260010	-0.586250	41.934376	4.558750
-35.136002	-29.280001	963.983032	15.719375	95.471252	8.400000
-136.395996	115.717003	1001.864014	8.181250	90.995628	-34.772499
-141.947006	-76.555000	990.457031	-2.633750	16.261875	-26.967501
-111.386002	0.244000	963.251038	9.336250	-4.900000	-38.941875
-186.781998	-20.434999	1077.565063	20.164375	-21.848749	-33.796875
-288.591003	-67.832001	979.294006	12.271875	-19.879999	-14.634375
-108.275002	20.007999	1000.705017	10.018750	-11.501875	-11.414375
-120.353004	50.020000	1015.650024	9.533125	-17.093124	-15.242500
-113.642998	-22.143000	1125.572021	2.336250	-22.150625	-19.241249
-92.049004	23.180000	947.025024	28.800625	7.345625	-10.504375
-108.640999	38.491001	995.398010	26.271875	-15.990625	1.194375
-18.544001	48.373001	862.234985	17.530624	-27.947500	16.813126
-86.253998	101.320999	1193.953003	2.830625	-13.860000	6.663125
-40.504002	136.701004	982.770996	12.333125	-2.458750	0.446250
-82.167000	160.979004	963.556030	-3.788750	-19.320000	4.265625
-28.975000	202.641998	1083.238037	12.823125	-18.602501	34.868752
87.168999	185.440002	1051.274048	2.502500	-23.966249	38.521873
116.875999	154.451996	1070.489014	-22.710625	-7.840000	18.584999
-80.581001	200.201996	988.200012	-7.962500	3.097500	12.534375
-80.520004	70.638000	1197.674072	-42.455002	4.580625	-5.775000
-74.603004	49.837002	1020.835022	-17.198126	26.026875	-18.668125
44.103001	102.053001	1078.479980	-12.748750	22.868126	-17.526251
13.908000	42.334000	949.770020	-25.934999	15.382500	1.063125
-71.918999	-78.628998	1002.169006	-39.825626	38.237499	18.974375
-68.014999	-97.234001	890.356018	-39.532501	47.560623	16.550625
-227.408005	-107.420998	1024.373047	-13.160000	44.778126	0.651875
-147.193008	-88.876999	916.708008	7.122500	47.385624	1.321250
-133.956009	-133.468002	917.928040	10.596250	49.384998	4.226250
-214.964005	-97.417000	960.627991	6.610625	55.960625	4.795000
-299.937012	-32.695999	956.663025	-7.529375	16.883125	-10.692500
-210.572006	-43.005001	1070.367065	-0.175000	-34.251877	-0.721875
-158.173004	-36.295002	906.887024	2.095625	-43.736874	6.505625
-175.680008	-4.880000	857.171997	4.983125	-12.915000	7.122500
-244.671005	25.132000	858.880005	3.049375	45.801876	12.101250
-260.226013	-12.261000	848.327026	-15.115625	86.257500	-3.968125
-537.776001	5.917000	850.340027	-3.377500	41.356876	4.550000
-43.188000	-4.453000	869.189026	-3.294375	-0.945000	9.791250
-425.597015	-29.219000	986.553040	-6.116250	-18.606874	2.703750
-258.579010	-28.243000	872.910034	-19.945625	-26.044374	4.143125
-181.292007	-68.014999	932.445984	-14.835625	-0.284375	1.890000
-248.514008	-130.417999	1116.910034	-5.573750	44.799999	3.285625
-261.690002	-86.742004	1005.645996	-10.119375	61.105625	14.498750
-388.692017	-178.242004	1103.672974	2.200625	-0.914375	19.193125
-364.963013	-97.417000	984.479004	16.161249	-46.847500	17.709999
-311.527008	-60.938999	979.781982	16.152500	-50.754375	12.328750
-334.341003	-66.184998	1094.523071	4.033750	-29.771875	0.647500
-264.434998	-51.972000	1025.348999	-15.833125	-48.313126	-0.721875
-258.822998	-34.526001	930.127991	-5.171250	-32.974377	0.245000
-328.912018	-113.216003	1115.567993	-9.996875	92.693123	-0.953750
-393.938019	-17.690001	1048.712036	0.573125	53.873749	2.576875
-367.220001	-33.062000	1017.968018	-11.462500	-9.436875	3.626875
-347.516998	-114.070000	1068.171021	-16.309999	2.301250	4.755625
-301.218018	-58.132999	924.150024	-9.196250	-0.153125	10.180625
-251.869003	-130.235001	896.151001	-14.389375	-26.718124	8.448125
-243.695007	-141.581009	1024.129028	-17.880625	-39.646252	-0.901250
-205.630997	-59.841000	876.509033	1.273125	-25.711876	-9.078125
-194.346008	-81.069000	1004.121033	-0.306250	-22.666876	-6.947500
-239.973999	-91.682999	919.330994	-4.834375	-6.291250	5.805625
-158.417007	-249.612000	968.070007	3.570000	0.822500	13.330625
-341.539001	-173.972000	999.668030	12.092500	0.179375	20.584375
-309.636017	-95.526001	976.304993	32.965626	-5.713750	24.456249
-230.824005	-146.888000	1085.190063	19.897499	1.211875	24.351250
-215.330002	-69.417999	1115.202026	5.635000	-0.266875	27.199375
-271.632996	-33.244999	1109.773071	5.670000	23.060625	34.877499
-393.023010	-81.739998	1075.063965	8.404375	5.687500	34.247501
-194.223999	-105.347000	1177.360962	-3.828125	-10.136875	50.028126
-290.665009	-171.471008	930.859985	-5.735625	59.692501	46.379375
-302.132996	-123.830002	874.801025	-31.399376	48.527500	42.078751
-306.951996	-113.399002	844.850037	-21.958124	43.728127	43.745625
-295.727997	-144.813995	850.035034	-27.448750	-0.861875	38.027500
-283.649994	-52.582001	947.147034	-34.829376	-10.062500	34.693748
-260.165009	95.343002	875.777039	-17.268126	8.548750	28.393749
-261.324005	6.771000	934.031982	-14.756875	9.314375	34.492500
-296.704010	-9.028000	912.132996	2.883125	15.911875	46.046875
-338.610992	23.180000	930.677002	15.509375	22.216249	45.211250
-365.817017	4.392000	902.067993	-3.123750	0.231875	44.091251
-338.550018	193.675003	956.296997	9.454375	-27.864374	13.995625
-247.294006	245.647003	1045.174072	16.441250	-22.575001	-5.127500
-369.416016	305.244019	930.554993	28.188126	-35.026249	-6.671875
-461.282013	161.772003	915.731995	32.781876	-48.391876	-3.666250
-439.016998	11.529000	948.671997	21.249374	-49.363125	12.678750
-254.248001	-181.841003	854.000000	1.264375	-78.001877	25.856251
-20.862000	-299.205017	1170.773071	-12.210625	-81.554375	28.446251
4.209000	-386.800995	1024.006958	-13.768125	-29.128750	34.501251
33.672001	-300.303009	1065.914062	-24.171875	12.573750	30.598749
-34.038002	-69.479004	955.260010	-23.296875	-2.393125	40.543125
-2.562000	40.260002	913.718994	-16.813126	10.880625	32.689999
-49.043999	62.159000	1032.608032	-22.500626	-11.392500	34.654373
-112.239998	-34.647999	1051.457031	-22.290625	-12.831875	39.716251
-124.135002	121.756004	1068.842041	-3.850000	-10.110625	22.365000
-46.360001	274.134003	1008.330017	9.760625	-1.815625	1.846250
-1.098000	349.895996	1035.657959	24.994375	5.770625	-10.526250
103.334000	302.071991	957.944031	30.546249	1.859375	-13.129375
85.643997	304.450989	907.802002	29.715000	4.716250	-12.932500
-39.223000	178.729996	844.301025	28.065624	-9.782500	-24.731874
-51.910999	157.807007	883.828979	18.274376	-28.201250	-43.776249
-55.875999	94.428001	858.330994	1.448125	-0.879375	-57.850624
-59.658001	12.566000	956.296997	-7.013125	-11.913125	-72.519997
-8.235000	-66.978004	1093.485962	-7.765625	-34.720001	-74.746872
-61.549000	-172.324997	1126.670044	-12.976250	-11.830000	-63.284374
-122.975998	-135.115005	1044.807983	-10.635625	-16.891874	-63.704376
-17.080000	-118.096001	994.788025	-8.273125	-8.732500	-51.931252
-135.847000	-87.108002	1138.687012	-6.168750	16.533125	-55.505627
-59.170002	45.811001	1237.994995	-0.074375	16.944374	-56.616875
-66.489998	-166.164001	1062.925049	-19.893126	9.979375	-32.471249
103.456001	8.967000	1070.244995	1.137500	-45.504375	-30.603125
96.806999	-124.745003	858.575012	38.255001	9.314375	-23.095625
-102.968002	-80.886002	1376.221069	29.767500	17.316250	-25.453751
41.541000	34.465000	1347.368042	-6.422500	32.405624	-34.313126
-80.093002	-17.750999	1066.036011	-36.343124	23.616249	-13.181875
-20.984001	-131.028000	1298.933960	14.424375	-10.640000	3.898125
-98.820000	30.316999	1044.015015	18.366249	-12.018125	0.910000
-124.867004	0.488000	1020.225037	8.855000	-8.023750	-9.148125
-59.719002	208.986008	964.898010	30.975000	-1.535625	10.745000
-23.729000	102.906998	981.856018	14.293125	-28.984375	63.144375
148.596008	142.190994	844.423035	-52.158749	-42.455002	90.251877
117.486000	-48.922001	996.007996	-33.696251	-11.112500	73.968124
8.052000	-101.443001	874.374023	-27.873125	13.632500	36.741249
-60.817001	-4.697000	1189.438965	5.000625	37.340626	11.659375
-21.410999	17.873001	836.249023	20.750626	17.968124	-10.644375
118.950005	-56.059002	-20.740000	-71.574997	9.568125	-41.523125
-79.726997	-36.173000	1028.459961	-48.855625	40.783749	-56.586250
-152.682999	8.906000	1069.390991	-0.765625	45.163124	-61.674374
-146.033997	-10.431000	1009.001038	45.928749	2.944375	-50.487499
-87.718002	97.234001	1041.270020	26.424999	-29.076250	-42.721874
-123.830002	-84.240997	428.890991	-19.473125	-47.613125	-42.209999
-440.602997	-35.380001	1206.396973	-8.321250	-70.800629	-24.609375
39.771999	60.024002	1126.303955	29.483126	-79.043121	2.576875
43.737000	-12.383000	1067.134033	-1.378125	-6.575625	19.481874
-15.738000	-11.346000	1056.947021	12.490625	26.337500	30.248751
5.185000	10.309000	976.488037	-0.249375	19.171249	28.170626
0.366000	51.605999	1037.244019	-15.330000	-5.565000	20.313126
39.466999	7.198000	1069.208008	-4.694375	-6.186250	3.762500
-20.313000	1.769000	1037.854004	-12.350625	9.681875	-3.097500
-6.466000	28.914000	962.092041	2.629375	12.158125	-6.943125
10.126000	12.688000	1018.822021	7.993125	-2.712500	-7.507500
28.609001	7.015000	1025.471069	6.050625	-2.843750	-4.475625
16.531000	13.115000	1012.539001	5.630625	4.226250	-0.516250
-3.904000	-2.928000	1020.468994	6.413750	1.098125	0.188125
-1.830000	20.434999	992.897034	5.175625	-1.483125	-0.525000
5.673000	30.561001	1008.574036	-2.104375	2.069375	-0.638750
15.433001	21.289000	1025.287964	-3.867500	0.035000	-0.398125
-3.721000	17.812000	1009.794006	-1.058750	1.785000	-0.363125
-2.562000	7.625000	1025.898071	0.459375	0.013125	-0.376250
6.039000	12.993000	1017.541016	-1.614375	0.424375	-0.428750
-0.549000	31.049000	1027.178955	-0.135625	0.621250	-0.389375
9.638000	17.202000	1021.567017	0.551250	-0.078750	-0.323750
7.808000	11.041000	1020.286011	-0.765625	1.308125	-0.205625
-0.793000	13.054000	1017.236023	-0.630000	0.805000	-0.280000
5.307000	9.150001	1015.893982	0.039375	0.065625	-0.455000
13.481000	9.516000	1010.465027	0.201250	1.058750	-0.441875
10.248000	15.433001	1012.721985	-0.468125	0.726250	-0.420000
-13.481000	9.943000	1023.702026	-0.056875	2.095625	-2.607500
6.771000	7.808000	1039.806030	2.086875	-0.936250	-3.163125
-33.611000	-11.468000	1027.422974	-0.008750	0.669375	-2.428125
-9.455000	113.704002	945.012024	-9.760625	-4.318125	-2.345000
92.780998	-3.111000	1091.350952	5.853750	-6.790000	-0.249375
17.629000	1.891000	1072.258057	2.051875	-10.425625	5.713750
11.651000	0.122000	1034.010986	1.496250	-8.636250	15.071875
34.342999	12.322001	1045.417969	2.743125	-5.026875	28.559999
39.771999	-6.283000	1003.450012	1.137500	-2.401875	41.820625
152.682999	57.218002	1121.484985	-3.150000	1.369375	41.308750
22.264999	-12.017000	1014.429993	-1.850625	5.346250	32.794998
34.282001	11.285000	999.302002	2.113125	-1.316875	21.813749
87.901001	9.150001	1030.290039	2.485000	1.548750	8.531250
46.299000	4.514000	1016.015991	2.677500	2.209375	-1.828750
40.443001	-1.159000	1006.439026	-1.128750	0.367500	-7.603750
58.621002	11.102000	1017.114014	-0.927500	1.076250	-10.469375
42.821999	35.929001	1012.966003	-3.373125	0.231875	-9.896250
33.000999	23.973000	1023.031006	-1.728125	0.231875	-3.408125
33.123001	-4.148000	1017.358032	-0.468125	1.776250	11.493125
40.443001	-8.662000	1004.853027	3.758125	1.588125	15.461250
58.255001	23.180000	1009.244995	-0.844375	0.367500	17.215626
70.028000	20.007999	1017.785034	-2.257500	-0.288750	12.131875
55.754002	4.026000	1011.441040	-2.012500	-0.560000	5.761875
44.957001	1.342000	1013.880981	-3.281250	-0.266875	0.634375
53.375000	9.577000	1015.406006	0.336875	0.997500	-2.086875
56.119999	5.612000	1014.307983	3.224375	1.855000	-3.136875
52.582001	6.954000	1011.135986	3.618125	2.209375	-4.151875
-53.131001	-112.423004	1099.098022	-12.656875	5.871250	-6.501250
189.527008	95.221001	1163.026001	-9.187500	16.450001	8.596875
22.021000	14.884000	1251.476074	0.008750	17.399376	24.115000
65.514000	229.115997	1189.744019	10.123750	11.830000	35.433125
-78.202003	177.998001	796.476990	10.578750	-6.352500	29.220625
35.806999	-23.058001	407.968018	0.695625	-6.448750	20.943125
128.466003	-106.689003	927.139038	49.931873	60.151875	-18.484375
-57.706001	174.520996	1776.807983	-8.233750	29.916250	-40.573750
-41.602001	-39.711002	1446.066040	-67.794998	-18.904375	-63.691250
-7.930000	-76.189003	713.944031	1.793750	-72.056252	-63.113750
44.896000	83.326004	965.569031	-0.870625	14.336875	-17.670626
30.134001	19.276001	924.455017	-19.241249	23.091249	2.909375
-7.381000	-4.331000	1017.601990	-2.559375	4.641875	18.239374
20.007999	6.466000	1016.504028	24.626875	-23.366875	30.078125
163.785004	9.089000	1081.103027	-10.202500	-30.756250	37.292500
53.558002	0.915000	1052.921021	-6.041875	0.323750	31.981251
37.332001	22.631001	982.039001	18.121250	2.152500	26.346251
68.197998	3.538000	1020.957031	-6.693750	-13.781250	18.571875
62.769001	-0.366000	1061.827026	-0.205625	-3.565625	3.495625
56.364002	22.082001	1017.236023	1.395625	-2.480625	-11.191250
45.079002	14.701000	1022.786987	-2.638125	1.470000	-12.516875
64.355003	-2.928000	1020.773987	-0.008750	3.609375	-11.996250
54.229000	-5.856000	1037.975952	-0.822500	-0.581875	-10.049375
46.542999	22.082001	1007.963989	-1.680000	0.840000	-5.893125
51.423000	15.067000	1014.369019	-1.225000	1.163750	-1.395625
48.922001	9.882000	1020.713013	-0.481250	-0.052500	1.439375
52.033001	14.213000	1011.441040	-0.328125	-0.131250	2.366875
55.693001	16.409000	997.838013	-0.332500	0.708750	2.218125
43.615002	10.431000	1010.281982	0.218750	1.076250	1.343125
53.436001	14.884000	1020.652039	0.131250	0.958125	-0.087500
46.542999	10.370000	1032.119995	-0.328125	0.608125	-0.218750
45.993999	19.093000	1022.054993	-0.861875	0.297500	-0.415625
48.190002	11.529000	1013.880981	-0.927500	0.310625	-0.323750
48.678001	6.832000	1009.306030	-0.621250	0.441875	-0.258125
51.789001	15.921000	1004.121033	-0.157500	0.665000	-0.424375
46.726002	27.450001	1001.254028	0.153125	0.761250	-0.498750
58.804001	16.165001	1006.682983	0.293125	0.743750	-0.358750
52.154999	5.551000	1006.744019	0.118125	0.857500	-0.240625
50.142002	22.753000	1015.528015	0.026250	0.826875	-0.358750
47.824001	21.106001	1016.260010	0.109375	0.700000	-0.223125
45.872002	8.845000	1020.591003	-0.301875	0.533750	-0.249375
51.056999	10.126000	1017.846008	-0.323750	0.367500	-0.402500
54.351002	26.474001	1014.796021	-0.494375	0.288750	-0.280000
56.608002	20.434999	1017.296997	-0.520625	0.516250	-0.179375
51.056999	11.895000	1012.721985	-0.310625	0.695625	-0.061250
47.945999	10.248000	1016.931030	-0.297500	0.761250	-0.214375
47.824001	10.248000	1010.343018	-0.153125	0.656250	-0.345625
51.545002	18.726999	1014.979004	-0.227500	0.896875	-0.415625
47.336002	13.237000	1015.223022	-0.494375	0.424375	-0.113750
47.580002	14.762000	1011.624023	-0.603750	0.603750	-0.319375
47.702000	14.762000	1018.639038	-0.599375	0.748125	-0.288750
57.157001	15.738000	1014.064026	-0.560000	0.638750	-0.258125
53.802002	15.738000	1011.257996	-0.516250	0.468125	-0.249375
52.216000	7.015000	1018.517029	-0.516250	0.415625	-0.166250
44.225002	23.546000	1006.195007	-0.284375	0.380625	-0.271250
53.985001	24.278000	1012.416992	-0.183750	0.428750	-0.179375
55.875999	11.590000	1016.077026	-0.227500	0.538125	-0.065625
42.028999	14.701000	1017.419006	-0.354375	0.634375	-0.183750
46.299000	24.461000	1015.283997	-0.288750	0.713125	-0.148750
54.839001	15.921000	1012.112000	-0.245000	0.743750	-0.323750
56.364002	16.714001	1016.320984	-0.288750	0.739375	-0.293125
51.056999	15.616000	1010.098999	-0.153125	0.468125	-0.052500
41.785000	10.858000	1014.125000	-0.087500	0.433125	-0.227500
52.704002	13.298000	1015.040039	-0.284375	0.380625	-0.459375
50.020000	11.224000	1012.843994	-0.288750	0.420000	-0.424375
57.278999	16.287001	1011.257996	-0.371875	0.424375	-0.293125
47.153000	8.845000	1013.210022	-0.498750	0.608125	-0.201250
48.983002	21.167000	1014.796021	-0.494375	0.511875	-0.350000
58.011002	20.374001	1016.138000	-0.406875	0.424375	-0.218750
53.436001	10.309000	1010.708984	-0.301875	0.581875	-0.148750
46.786999	7.198000	1015.710999	-0.201250	0.638750	-0.126875
41.418999	18.422001	1013.942017	-0.039375	0.700000	-0.192500
51.179001	15.372000	1011.624023	0.004375	0.529375	-0.328125
59.841000	16.104000	1009.916016	0.008750	0.446250	-0.345625
49.959000	8.113000	1014.125000	-0.214375	0.345625	-0.245000
48.799999	9.638000	1015.406006	-0.183750	0.411250	-0.196875
55.327000	14.640000	1016.869995	-0.258125	0.525000	-0.402500
58.255001	18.849001	1010.830994	-0.376250	0.595000	-0.371875
45.567001	10.919000	1014.856995	-0.328125	0.761250	-0.179375
46.970001	15.189000	1009.184021	-0.319375	0.350000	-0.288750
46.482002	15.372000	1015.833008	-0.424375	0.533750	-0.293125
54.961002	12.566000	1014.552002	-0.529375	0.616875	-0.363125
56.973999	17.019001	1016.015991	-0.437500	0.546875	-0.284375
52.948002	12.810000	1015.406006	-0.293125	0.616875	-0.166250
44.591000	13.908000	1016.992004	-0.131250	0.634375	-0.105000
47.214001	10.492001	1012.478027	0.008750	0.599375	-0.393750
53.680000	19.703001	1014.186035	-0.161875	0.673750	-0.354375
50.630001	14.518001	1012.234009	-0.039375	0.608125	-0.153125
51.240002	14.762000	1011.867981	-0.310625	0.564375	-0.284375
49.532001	15.982000	1014.734985	-0.476875	0.691250	-0.306250
50.142002	18.056000	1015.650024	-0.310625	0.813750	-0.406875
54.839001	24.827000	1012.478027	-0.126875	0.634375	-0.280000
55.021999	13.969000	1015.345032	-0.166250	0.393750	-0.188125
47.519001	15.006001	1020.103027	-0.166250	0.389375	-0.253750
44.896000	11.712000	1013.393005	-0.253750	0.529375	-0.231875
50.996002	18.361000	1013.148987	-0.144375	0.529375	-0.398125
51.972000	17.446001	1009.306030	-0.087500	0.800625	-0.319375
