AccX[mg]	AccY[mg]	AccZ[mg]	GyrX[dps]	GyrY[dps]	GyrZ[dps]	
-4.514000	-20.313000	1020.103027	-4.690000	-2.384375	-4.563125
2.013000	-2.318000	1016.138000	4.471250	-4.471250	-5.665625
17.446001	6.161000	1011.624023	4.746875	-5.683125	-4.287500
22.875000	3.172000	1015.345032	-4.348750	-1.015000	0.573125
22.448000	-7.015000	1020.103027	-6.514375	3.670625	4.602500
8.052000	-15.067000	1018.455994	0.043750	10.316250	8.802500
-4.819000	-7.015000	1015.650024	1.583750	9.511250	8.378125
6.100000	-3.477000	1011.502014	-2.393125	2.655625	4.917500
4.148000	-6.588000	1018.517029	-2.025625	3.311875	5.831875
-2.379000	-10.492001	1017.358032	1.343125	4.838750	6.247500
-12.139000	-10.126000	1011.929016	-0.586250	0.148750	0.266875
-0.244000	-9.028000	1015.345032	0.026250	1.653750	-1.281875
3.477000	-0.915000	1010.038025	0.056875	5.293750	-0.774375
-14.030000	0.366000	1014.369019	-1.128750	4.221875	-1.610000
-14.762000	-7.137000	1015.893982	-1.001875	-0.739375	-4.160625
-12.932000	-12.078000	1021.811035	0.525000	-0.131250	-3.228750
-9.943000	-4.209000	1015.223022	0.345625	2.183125	-0.962500
-10.980000	-2.806000	1017.601990	-1.111250	4.309375	1.592500
-16.531000	-4.758000	1014.674011	-0.923125	6.855625	5.083750
-14.579000	-13.542000	1017.053040	1.474375	-5.197500	0.231875
-11.407001	-1.708000	1015.406006	2.161250	-1.872500	1.019375
-12.200000	-2.806000	1016.869995	-0.752500	2.655625	0.883750
-11.224000	-3.172000	1010.708984	-2.603125	3.045000	-1.452500
-15.006001	-8.418000	1013.637024	0.997500	3.150000	-2.616250
-26.413000	-3.965000	1016.809021	1.981875	-4.939375	-7.533750
-1.647000	0.793000	1013.697998	0.380625	-12.460000	-11.130000
2.379000	-6.405000	1004.609009	4.042500	1.338750	-5.381250
-3.233000	3.477000	1013.393005	0.468125	16.515625	0.595000
-46.177002	-14.396000	1008.879028	-2.830625	13.405000	0.945000
-41.418999	-0.488000	1017.174988	5.661250	-5.005000	1.706250
-13.664001	1.220000	1015.040039	3.167500	-10.893750	2.078125
-19.153999	-3.965000	1015.406006	-3.605000	-7.669375	2.191875
-19.032000	9.394000	1015.528015	-2.905000	-1.955625	1.618750
-22.448000	0.061000	1016.504028	2.091250	1.973125	0.205625
-23.424000	0.488000	1014.552002	2.305625	3.049375	-1.894375
-12.322001	11.712000	1043.343994	-1.229375	4.038125	-2.935625
-30.378000	9.760000	1016.687012	-3.696875	4.086250	-3.058125
-34.952999	-2.440000	1018.882996	2.174375	2.782500	-1.500625
-29.951000	3.965000	1011.684998	3.381875	2.782500	-1.041250
-12.078000	16.958000	1005.585022	2.423750	1.308125	-1.960000
-29.524000	11.712000	1015.893982	-0.546875	-1.001875	-2.813125
36.904999	145.606995	998.936035	4.178125	-6.623750	-30.940001
-34.952999	-158.660995	1002.413025	-10.390625	6.396250	-31.084375
-36.844002	51.789001	1066.890015	69.264999	8.286250	-59.005627
-25.132000	-65.696999	1065.060059	38.631248	-37.791248	-110.858124
-11.346000	-3.050000	1053.042969	-7.490000	-25.991875	-119.818123
-62.708000	108.519005	984.356995	-6.514375	13.601875	-59.941875
-168.542999	-38.735001	1058.593994	-31.920000	-31.745001	-71.522499
-20.923000	82.594002	1032.669067	-3.920000	-61.136250	-23.944374
172.447006	-31.659000	1023.031006	10.500000	-58.428123	4.908750
4.026000	138.225998	1099.586060	17.276875	-6.680625	20.186251
152.317001	17.263000	912.804016	24.692499	-16.073750	32.943748
76.127998	9.455000	1206.092041	12.425000	-15.124375	19.276251
246.561996	58.865002	917.013000	-13.899375	-4.414375	13.033125
267.240997	86.986000	1071.891968	-12.600000	4.694375	4.475625
190.563995	155.001007	1117.520020	-17.793125	51.218124	2.270625
12.139000	106.322998	1079.516968	-1.890000	88.488747	16.043125
86.375999	101.748001	1171.443970	-15.076250	64.557503	7.227500
-86.863998	60.329002	862.052002	-12.893125	-5.026875	8.837500
34.282001	13.786000	1029.192017	-9.524375	-27.024376	4.038125
-2.623000	-129.320007	1127.951050	-15.391250	47.394375	9.590000
-519.903015	-114.436005	633.668030	-3.749375	51.095627	4.060000
-124.867004	98.576004	890.661011	37.292500	-62.531876	-5.578125
-88.389000	77.409004	988.992981	45.390625	-112.756874	-10.342500
10.187000	88.206001	896.212036	15.325625	-71.736877	-1.006250
-22.936001	60.084999	829.539001	22.338751	-4.081875	-12.411875
-32.025002	-11.041000	987.895020	28.783125	-22.172501	-8.395625
-4.758000	30.866001	1031.388062	-4.178125	-3.683750	-15.540000
5.429000	-27.267000	969.778015	2.441250	9.568125	-12.013750
-36.904999	-36.295002	1151.313965	-3.561250	10.924375	-3.583125
-43.980999	2.867000	1054.933960	-13.435625	27.461876	-2.362500
-39.466999	-72.163002	1011.319031	1.093750	3.832500	0.332500
-0.427000	-7.930000	1286.734009	-5.547500	5.875625	-2.528750
-27.023001	-6.832000	1077.198975	-14.844375	14.538125	-3.666250
9.638000	-22.387001	1120.020996	11.248125	-24.460625	-15.780625
49.105000	-9.394000	984.601013	1.636250	-20.295626	-8.277500
64.293999	-89.914001	911.156982	-11.786250	14.315000	2.406250
-17.323999	-63.195999	975.572998	-14.555625	26.306875	-15.662500
-20.618000	-19.764000	925.247986	-18.869375	25.650625	-15.605625
5.490000	-38.674000	911.340027	-24.403749	-11.830000	0.406875
57.767002	-104.676003	999.546021	-10.714375	7.109375	15.833125
47.885002	-85.583000	986.004028	0.783125	2.786875	18.773125
39.833000	-50.447002	1038.036987	7.700000	-12.831875	4.694375
70.089005	-22.143000	988.932007	7.113750	-34.299999	-7.376250
45.688999	2.257000	1073.416992	0.205625	-6.680625	-9.235625
32.879002	-6.771000	1008.330017	-13.470625	14.100625	-5.460000
23.729000	-11.773000	937.020996	-12.333125	7.643125	-7.214375
71.248001	31.110001	981.246033	-1.496250	-9.016875	-10.762500
-10.858000	3.843000	1099.890991	15.448125	21.056875	-9.419375
-36.539001	44.103001	1057.191040	10.968125	2.152500	-14.122500
26.718000	65.941002	1073.112061	4.309375	-42.984375	-14.520625
112.423004	34.526001	1037.061035	-8.277500	-33.149376	-5.446875
66.734001	5.917000	1032.608032	-9.931250	-9.961875	-10.023125
119.316002	-5.673000	1047.858032	1.907500	-10.552500	-9.944375
87.230003	36.722000	1042.978027	3.198125	4.830000	-6.846875
66.184998	52.459999	985.699036	10.552500	29.106874	-5.171250
85.948997	61.427002	1013.697998	14.336875	19.114374	5.140625
-17.507000	5.063000	1019.005005	8.894375	24.084375	6.860000
3.965000	48.068001	984.906006	11.291875	29.461250	9.498125
-35.196999	50.569000	991.067017	3.290000	30.795626	10.180625
-86.375999	70.089005	982.283020	3.465000	13.107500	4.781875
-18.971001	44.225002	1026.264038	1.141875	-12.184375	2.485000
0.183000	41.418999	967.033020	1.596875	-25.584999	20.221251
15.616000	43.066002	1042.734009	4.576250	-19.950001	19.424999
-8.235000	34.465000	963.678040	5.906250	4.563125	21.026251
40.138000	17.690001	981.612000	3.395000	1.903125	15.028125
47.885002	71.553001	981.002014	-4.939375	-23.651251	17.136875
136.518005	2.989000	974.596985	-20.667500	-18.003124	19.263124
43.431999	13.359000	1047.004028	-39.011875	-27.256250	24.259375
94.367004	-19.276001	1044.320068	-24.373125	-31.447500	36.404373
153.231995	-64.781998	967.825989	-3.228750	-16.244375	25.978750
185.806000	-109.373001	1075.430054	13.737500	19.241249	34.864376
130.113007	-44.225002	1031.021973	8.478750	39.011875	27.934376
150.242996	-34.952999	1053.896973	-0.266875	6.759375	25.007500
141.947006	-80.520004	1050.297974	-6.339375	10.132500	9.817500
98.027000	-69.905998	968.679993	-7.266875	0.087500	-7.564375
230.763000	-23.790001	913.718994	3.893750	-22.855000	-13.593125
197.029999	-28.304001	1054.446045	12.271875	-26.976250	-10.263750
208.253998	-3.111000	1090.740967	2.380000	16.935625	9.095625
104.249001	-35.257999	973.132996	8.828750	41.160000	12.127500
40.260002	6.222000	1077.748047	12.495000	43.439377	1.408750
24.156000	-5.002000	1007.536987	0.962500	39.029373	0.538125
-31.537001	10.980000	1022.604004	11.108125	7.634375	-6.995625
71.187004	52.948002	1068.354004	17.014376	-7.144375	-6.571250
77.409004	25.193001	1003.083984	11.506250	-15.426250	-1.855000
120.048004	90.219002	1019.187988	4.418750	-7.258125	4.628750
114.131004	57.584000	1036.268066	-8.216250	23.305626	12.950000
23.729000	37.453999	902.861023	-8.395625	37.161251	14.319375
-86.498001	16.287001	1021.750000	4.506250	31.219999	-16.953125
61.671001	66.306999	1000.705017	0.223125	-6.195000	-23.362499
37.881001	13.847000	957.578003	0.835625	-2.288125	-13.304375
29.341000	48.861000	950.684998	1.855000	-6.816250	-22.802500
34.831001	31.720001	1037.182983	-9.887500	-26.678749	-13.352500
3.050000	-4.514000	1053.592041	-21.131250	-24.920000	-13.549375
34.526001	-3.660000	1005.768005	-8.925000	-10.710000	-9.095625
13.237000	30.073000	1019.676025	5.993750	-0.980000	-13.265000
-3.782000	85.460999	1129.354004	11.668125	-1.960000	-18.348749
114.375000	98.697998	984.906006	-5.989375	-6.938750	-10.867500
133.406998	-21.045000	957.882996	-8.373750	-12.131875	-3.823750
208.193008	-3.294000	997.533020	21.008751	-9.170000	-11.641875
119.743004	-40.687000	1066.097046	15.745625	2.681875	-9.091250
60.695000	71.675003	969.046021	12.005000	4.326875	-15.697500
139.568008	66.184998	1005.707031	18.182501	-7.262500	-11.156250
104.554001	82.472000	985.393982	15.190000	5.149375	-3.924375
112.911003	115.167999	1053.286987	-7.861875	-0.328125	0.017500
50.142002	43.493000	1092.815063	-32.917500	-16.559376	5.818750
128.832001	-39.161999	1035.230957	-21.809376	-9.961875	0.787500
69.540001	58.376999	1034.682007	-3.206875	-25.200001	-11.760000
76.432999	74.054001	1028.826050	6.256250	-33.547501	-15.163750
123.464005	-39.466999	998.082031	-5.481875	48.549374	-4.431875
96.806999	-40.382000	926.041016	4.353125	28.091875	2.611875
78.933998	-12.078000	926.101990	13.720000	11.808125	0.415625
45.262001	-16.958000	960.200989	16.524376	19.945625	-3.998750
19.580999	36.295002	1005.768005	1.824375	27.750626	-3.084375
7.015000	46.970001	1017.480042	-0.280000	-1.299375	-0.144375
33.184002	27.572001	1034.682007	5.831875	3.115000	8.697500
27.145000	15.677000	1021.384033	5.674375	16.721251	9.340625
38.430000	26.230000	1018.212036	-6.488125	2.576875	4.930625
41.174999	0.000000	1026.751953	-17.478125	13.580000	-0.035000
25.010000	-21.533001	1040.171997	-13.908125	11.694375	2.248750
8.052000	-79.605003	1088.728027	-15.006250	16.931250	6.807500
-40.869999	2.257000	967.520996	-7.748125	5.140625	-2.380000
-64.843002	108.335999	903.288025	5.105625	-9.021250	-10.451875
-24.217001	117.181000	929.884033	3.303125	-6.321875	-5.678750
29.707001	131.272003	1019.554016	7.437500	-9.025625	-5.748750
57.096001	185.378998	1016.869995	3.110625	-7.573125	-1.203125
114.252998	142.069000	1090.680054	0.822500	0.809375	2.590000
24.521999	79.300003	1011.684998	-11.602500	17.443125	9.813125
-7.930000	9.211000	1043.832031	-14.249375	14.507500	11.471250
4.514000	-1.281000	964.898010	-5.398750	11.379375	-2.559375
-4.209000	0.610000	993.690002	-5.713750	0.271250	-6.606250
6.344000	-14.884000	978.562012	-1.325625	-3.381875	-7.262500
20.618000	-13.420000	955.199036	7.118125	9.511250	-6.706875
-15.128000	21.410999	971.242004	9.559375	1.181250	-0.253750
-4.148000	-5.429000	1013.454041	17.456249	-12.661250	-1.496250
1.281000	35.806999	986.674988	16.445625	-3.688125	1.286250
0.854000	20.618000	1002.840027	0.153125	-4.672500	6.072500
8.845000	-11.834001	1015.161987	-0.385000	-3.045000	10.136875
-10.370000	7.381000	1048.346069	5.512500	-0.411250	11.908750
-14.640000	10.797000	1020.835022	2.581250	-2.817500	11.322500
-4.148000	1.891000	1010.587036	-0.511875	-5.705000	8.023750
3.111000	41.174999	993.567993	1.246875	-5.753125	2.410625
6.283000	58.681999	1014.734985	-1.610000	-7.931875	0.026250
40.199001	56.608002	1068.902954	-0.997500	-4.165000	-2.563750
53.680000	73.566002	1038.952026	-2.953125	-4.847500	0.406875
49.897999	67.527000	1057.068970	-2.458750	-1.850625	2.043125
12.017000	75.091003	1008.452026	-0.341250	8.181250	2.813125
28.670000	73.688004	1048.529053	1.133125	12.451250	1.640625
-5.612000	52.887001	1018.333984	-1.115625	10.775625	4.843125
-13.847000	51.362000	986.126038	-2.086875	7.783125	-0.297500
-5.917000	35.014000	1024.983032	-1.203125	5.674375	-3.574375
-1.525000	59.353001	1016.809021	0.770000	-1.968750	-4.624375
30.866001	53.131001	1037.549072	2.410625	5.687500	0.319375
-13.115000	33.549999	1013.637024	1.701875	8.316875	3.119375
-4.941000	53.618999	1009.794006	5.267500	-0.503125	0.017500
-32.818001	9.028000	1000.888000	0.673750	13.921250	0.568750
-14.457000	66.246002	1004.731018	2.231250	10.696875	-0.310625
-6.893000	74.969002	1006.377991	2.848125	-4.904375	2.288125
-17.750999	50.325001	1012.294983	1.758750	-5.271875	2.463125
-51.362000	80.031998	1052.921021	-5.079375	6.895000	4.838750
-67.466003	57.157001	1054.079956	-6.260625	3.801875	1.365000
-42.761002	70.760002	1053.836060	-4.195625	-0.048125	-2.839375
-35.441002	56.852001	1037.609985	-0.752500	7.266875	-1.535625
-42.395000	66.551003	1002.596008	1.754375	5.993750	-0.678125
-23.180000	43.310001	1004.853027	4.112500	0.844375	4.755625
-30.561001	47.153000	1008.635010	3.058125	2.279375	3.915625
-31.842001	45.262001	1021.384033	9.100000	-4.663750	0.485625
-29.524000	94.245003	1029.497070	13.278125	-2.441250	-4.716250
-27.450001	97.904999	1030.777954	12.061875	3.640000	-4.725000
-38.735001	104.614998	1012.721985	8.588125	0.262500	-5.022500
-16.042999	98.271004	1005.096985	4.908750	2.708125	-1.671250
-55.083000	83.814003	937.936035	4.103750	4.217500	-0.564375
-4.697000	76.311005	877.546021	4.628750	-7.157500	5.748750
-52.764999	-16.348000	744.444031	7.490000	-17.451876	1.798125
12.017000	-96.989998	865.590027	-1.023750	-46.541248	-4.108125
65.453003	-97.599998	846.557983	5.241250	-47.617500	-10.250625
116.083000	-88.266998	908.778015	15.596875	-27.431250	-7.301875
115.900002	-65.086998	1032.973999	16.686251	-23.309999	-1.491875
108.885002	-18.422001	972.096008	11.891250	-27.877501	3.928750
168.970001	35.196999	1052.067017	12.429375	-49.192501	11.217500
194.589996	101.565002	1217.437988	20.523125	-39.707500	14.945000
138.287003	238.876007	1098.427002	17.184999	-14.380625	26.009375
139.445999	271.571991	1116.727051	14.638750	2.646875	27.654375
219.356003	246.623001	1077.808960	-22.299376	21.629999	20.492500
161.955002	337.208008	1095.864990	-7.017500	30.598749	22.443750
112.728004	301.096008	1016.260010	-12.499375	33.792500	21.420000
144.570007	269.985992	1015.161987	-21.594999	10.941875	9.839375
167.811005	146.156006	981.734009	-23.620625	2.012500	11.169375
156.953003	36.844002	996.984009	-24.263750	17.552500	11.427500
96.501999	-1.159000	948.549988	-13.409375	5.718125	8.995000
160.735001	-109.433998	974.291992	-3.088750	-7.840000	15.321250
105.712997	-94.183998	956.541016	12.495000	-14.385000	14.271250
196.419998	29.280001	1041.453003	37.183125	-29.876875	12.766250
157.929001	121.389999	1072.258057	30.795626	-26.232500	20.671875
205.813995	196.542007	1189.561035	2.235625	-11.309375	30.366875
221.307999	195.809998	1144.725952	-10.202500	-6.278125	37.362499
168.908997	125.965004	1079.822021	-10.123750	3.456250	45.653126
225.516998	73.749001	1110.566040	-6.811875	1.841875	39.593750
114.557999	61.183002	987.223999	-6.142500	-9.988125	37.764999
227.225006	2.135000	1096.170044	-2.065000	12.591250	35.328125
225.456009	98.881004	1016.015991	9.244375	12.075000	20.930000
225.699997	179.339996	1157.657959	10.180625	19.280624	25.361876
182.085007	132.858002	1106.052002	1.785000	22.434999	39.952499
235.399002	159.210007	1193.098999	-11.738125	37.187500	41.536251
171.410004	177.326996	1145.823975	-24.994375	40.494999	46.388126
169.458008	16.775000	1080.432007	-43.308125	32.340000	47.127499
181.292007	138.470001	1158.268066	-16.708124	21.818125	30.095625
150.059998	52.033001	1091.656006	-18.974375	50.264374	27.873125
37.698002	99.430000	1066.584961	-6.978125	42.577499	20.833750
75.334999	179.096008	1089.155029	16.205000	33.333126	21.065624
76.920998	297.436005	1067.378052	34.006874	49.783127	12.346250
-87.413002	167.688995	1080.310059	5.075000	71.050003	22.408751
-15.372000	207.949005	1051.395996	0.691250	63.822498	10.036250
-39.101002	176.900009	977.768982	2.393125	74.650627	10.066875
-174.520996	189.466003	935.191040	8.968750	85.207497	1.583750
-158.844009	201.056000	888.038025	9.922500	67.449371	2.279375
-311.649017	130.966995	736.819031	17.968124	52.106251	-12.888750
-261.385010	197.945007	772.809021	26.538750	40.586876	-39.480000
-236.130997	233.324997	673.257019	32.510624	11.987500	-43.448124
-344.772003	230.031006	760.182007	21.428749	18.414375	-41.838123
-288.713013	143.044998	745.298035	20.890625	13.597500	-48.426876
-323.910004	124.562004	796.233032	24.416876	11.615625	-60.143124
-241.011002	143.410995	787.570984	18.663750	-8.833125	-69.501251
-301.096008	93.573997	705.403992	16.016874	-11.816875	-55.523125
-298.533997	-15.006001	750.421997	11.733750	2.773750	-64.220627
-317.200012	38.003002	782.142029	8.999375	-31.320625	-71.203125
-236.130997	-79.726997	790.010986	16.012501	-13.527500	-59.775623
-315.858002	-34.403999	731.572998	24.285625	-19.385626	-55.733124
-406.687012	3.294000	646.905029	11.615625	-22.491875	-50.592499
-264.496002	-28.304001	816.668030	13.378750	-59.753750	-65.988129
-256.139008	-46.360001	892.674011	8.080625	-59.832500	-50.461250
-143.410995	-69.112999	935.984009	11.904375	-53.130001	-37.813126
-258.457001	-122.670998	908.838989	24.985624	-42.752499	-21.319374
-113.887001	-135.785995	1066.341064	19.853750	-48.606251	-42.818127
-101.625999	-63.195999	1027.301025	7.748125	-58.467499	-47.285000
-79.726997	-90.951004	992.713989	9.690625	-52.858749	-33.302502
16.775000	42.517002	1037.000000	10.023125	-46.165001	-39.786251
3.050000	-43.615002	976.488037	-13.133750	-32.191250	-12.455625
-114.009003	-209.962006	935.434998	-28.498751	-29.631874	-12.031250
-79.483002	-216.611008	1105.320068	-32.952499	-46.742500	-32.458126
31.171000	-136.884003	1156.499023	-24.233126	-51.248749	-28.293125
88.084000	-176.595001	994.848999	-2.611875	-30.065001	-9.607500
55.632000	-188.307007	1152.411987	5.683125	-21.700001	4.169375
64.843002	-105.224998	1059.326050	11.309375	-4.681250	10.333750
107.482002	-147.070999	1126.974976	11.086250	-15.106875	21.030624
96.196999	-46.055000	1183.338989	27.348125	-25.786249	28.980000
113.826004	-83.509003	1024.800049	32.296249	-1.172500	49.945000
131.393997	-27.450001	1064.023071	29.430626	-43.522499	28.385000
210.572006	12.383000	1061.156006	26.302500	-50.255627	29.137501
203.557007	59.414001	1208.348999	61.950001	-19.477501	29.220625
159.576004	199.225998	1171.260986	29.924999	-13.505625	41.304375
208.681000	151.402008	1173.030029	-2.918125	-24.745001	51.904999
262.483002	146.156006	1135.636963	-10.552500	-4.624375	55.098751
218.014008	106.932999	1110.016968	-30.130625	-8.649375	59.911251
249.977997	-3.538000	1096.170044	-11.786250	-24.088751	52.867500
252.296005	37.271000	1181.143066	-4.274375	-8.417500	43.049999
295.118011	11.163000	1151.313965	-13.387500	20.365625	49.958126
264.007996	20.434999	1143.201050	-29.373751	3.491250	54.398750
345.808990	-70.760002	1103.551025	-26.643749	2.489375	51.887501
302.621002	-13.176001	1127.951050	10.023125	29.321251	38.473751
285.846008	48.922001	1090.253052	6.063750	48.365623	38.618126
309.819000	40.320999	1126.487061	4.147500	47.853748	36.496250
261.080017	68.930000	1093.242065	0.402500	8.990625	33.210625
327.143005	-30.927000	1193.221069	-15.789375	-22.373751	39.926250
281.209991	86.558998	994.544006	-21.866249	-12.162500	44.813126
224.419006	-19.398001	1087.508057	-13.405000	22.999374	48.724377
168.725998	29.524000	1007.476013	4.235000	51.751877	43.207500
-34.282001	119.559998	982.039001	14.988750	45.447498	40.652500
61.183002	62.037003	1108.614014	10.880625	58.021252	14.783125
23.241001	100.223000	1054.506958	-0.984375	59.644375	11.913125
-41.358002	102.785004	1000.095032	18.952499	72.065002	-0.962500
-46.482002	130.417999	931.286987	33.254375	71.518127	5.210625
-137.371994	-1.403000	851.559998	28.809376	47.158127	12.381250
-76.737999	42.212002	953.734985	36.207500	36.294998	0.004375
-191.845001	79.848999	876.814026	38.504375	47.543125	-3.268125
-267.667999	154.878998	839.604004	1.741250	39.208752	-9.003750
-258.213013	126.391998	870.591980	5.381250	35.516251	-14.048125
-217.587006	102.175003	850.828003	8.474375	33.796875	-8.653750
-443.897003	97.599998	775.187988	19.757500	36.303749	-37.830624
-222.223007	111.996002	846.984985	18.983126	11.261250	-57.583752
-263.946991	71.065002	865.651001	7.061250	2.248750	-37.611874
-318.114990	54.656002	810.385010	14.778750	16.699375	-46.619999
-227.164001	9.760000	872.544006	14.573125	2.975000	-37.139374
-395.645996	26.962000	736.697021	19.446875	17.298750	-37.848125
-306.585999	6.710000	855.036987	28.091875	1.483125	-35.840000
-305.000000	70.089005	758.229980	20.776875	-23.428125	-49.249374
-233.081009	-17.995001	856.379028	19.801250	-21.192499	-60.357498
-256.871002	54.656002	795.074036	20.597500	-23.611876	-54.035625
-197.029999	-20.191000	831.369019	24.797501	-29.942499	-45.158749
-332.632996	-42.272999	783.728027	8.531250	-36.058750	-36.386875
-181.169998	-48.494999	914.085022	11.786250	-48.676250	-38.976875
-247.171997	-149.389008	857.721008	0.446250	-41.632500	-34.269375
-184.708008	-128.283005	929.213013	0.560000	-48.737499	-35.406876
-77.958000	-178.973999	1069.329956	-5.158125	-21.826876	-27.636875
-32.390999	-144.387009	1070.123047	22.207500	-62.103127	-50.439377
-38.491001	-45.323002	925.431030	-1.802500	-78.933746	-17.290001
-57.950001	-153.231995	991.677002	-21.196875	-36.680000	-11.672500
21.472000	-174.643005	1019.676025	-38.009998	-18.777500	-11.357500
-38.552002	-66.612000	790.132996	-42.161877	-54.223751	-10.937500
74.847000	-234.179001	989.908020	-28.656250	-40.521252	-0.848750
-15.067000	-281.820007	1009.244995	-11.471250	-18.300625	-8.190000
47.458000	-201.361008	1077.321045	5.788125	-53.886875	-34.711250
175.497009	-138.714005	1205.177002	-6.488125	-54.223751	-11.418750
51.728001	-162.076996	1134.051025	-22.251249	-20.816250	7.398125
109.312004	-217.098999	1084.458008	-31.399376	-36.019375	13.488125
11.956000	-134.261002	1215.302979	-14.796250	-35.468124	-18.475624
353.678009	-159.759003	1194.624023	-21.616875	-32.497501	17.430000
26.596001	-253.150009	1154.302979	10.596250	0.188125	22.290625
179.949997	-182.695007	1150.582031	32.081875	-8.741250	-3.381875
258.640015	-137.371994	1085.800049	10.329375	-22.378124	9.559375
209.473999	-105.652000	1104.161011	22.750000	-22.163750	27.960625
269.742004	-113.642998	1121.057983	33.866875	10.049375	47.656876
216.001007	-153.537003	1027.362061	21.109375	16.559376	47.420624
418.947998	-44.957001	1122.583008	16.922501	-31.745001	25.081875
443.897003	35.196999	1097.695068	-2.826250	9.375625	51.786877
178.973999	-92.354004	908.290039	-2.953125	35.870625	74.068748
128.587997	-148.535004	913.963013	24.845625	14.630000	62.033127
203.496002	-88.938004	1062.437012	26.582500	7.743750	52.867500
239.181000	-121.389999	997.350037	27.426874	10.823750	50.229374
95.038002	-42.212002	1107.821045	23.253124	5.525625	42.984375
194.772995	-32.025002	1130.756958	7.914375	-3.543750	39.484375
175.923996	-15.616000	1125.266968	-6.063750	-5.276250	35.691250
289.322998	-0.671000	1261.602051	-13.186250	-13.877500	23.581249
315.126007	24.339001	1168.394043	-15.890000	5.215000	25.165001
367.769012	51.728001	1191.025024	-18.825624	8.461250	28.345625
267.729004	-18.605000	1039.867065	-44.760624	17.937500	49.726250
141.154007	-22.082001	1041.270020	-8.859375	29.946875	47.044376
184.830002	-76.067001	1011.380005	11.681250	37.743126	47.810001
84.607002	-73.261002	988.017029	18.488750	53.895626	47.092499
114.680000	-124.562004	1043.282959	32.970001	67.672501	38.618126
73.871002	-28.609001	991.067017	26.075001	39.576248	26.967501
20.679001	40.564999	1049.810059	22.898750	44.406250	22.601250
-120.292000	138.225998	1084.702026	13.868750	67.703125	16.848125
-67.527000	135.664001	1022.238037	19.954374	65.891876	20.781250
-111.996002	65.941002	959.286011	16.445625	65.642502	20.055000
-194.468002	134.749008	907.252991	26.621876	69.313126	1.181250
-187.574997	68.807999	908.046021	14.888125	58.730000	-3.430000
-285.114014	128.710007	833.809021	10.027500	48.553749	-8.776250
-258.518005	53.741001	815.447998	13.195000	76.055000	-12.643750
-378.993011	111.141998	807.091003	13.361250	51.388748	-26.131874
-372.282990	84.973000	826.244995	31.360001	57.522499	-20.317499
-373.563995	54.961002	753.655029	5.499375	9.205000	-26.372499
-475.128998	-3.599000	745.237000	13.164375	28.188126	-42.756874
-333.791992	7.808000	682.955994	12.705000	12.495000	-63.546875
-434.747009	52.948002	676.184998	22.496250	-1.102500	-66.823753
-376.248016	-7.442000	622.382996	36.006248	8.793750	-65.248749
-410.529999	5.734000	727.242004	27.995625	3.902500	-52.552502
-405.222992	-32.025002	596.153015	29.522499	0.021875	-43.203125
-473.421021	-38.612999	692.898987	20.151251	-11.195625	-32.081875
-359.717010	-65.819000	753.838013	16.143749	-20.746250	-36.872501
-493.063019	-144.570007	738.100037	10.657500	-25.781876	-33.569374
-310.368011	-177.449005	836.981018	17.981251	-55.221249	-47.525623
-298.290009	-119.559998	817.400024	19.114374	-42.446251	-47.945625
-258.091003	-130.600998	907.557983	25.462500	-51.817501	-51.108749
-297.131012	-140.117004	857.294006	7.021875	-55.173126	-30.008125
-258.579010	-139.445999	941.901001	8.627500	-39.619999	-29.911875
-292.312012	-222.589005	975.145996	10.425625	-45.679375	-14.503125
-334.463013	-166.957001	961.665039	-1.426250	-42.481251	-31.880625
-142.313004	-187.270004	1100.927979	-10.211250	-63.765625	-46.423126
-122.427002	-214.537003	1101.660034	-49.778751	-70.118126	-33.989376
-34.465000	-224.296997	1046.515991	-20.654375	-55.146873	-12.678750
-57.278999	-354.105011	999.057983	-3.272500	-14.437500	-2.086875
-121.512001	-244.000000	946.049011	8.430625	-16.143749	0.783125
-79.910004	-266.020996	1083.482056	24.561251	28.813749	16.104376
-101.077003	-339.709015	1137.100952	4.125625	11.239375	28.030624
-90.279999	-231.190002	925.065002	11.825625	-55.369999	14.170625
107.604004	-201.421997	1100.989014	19.263124	-77.074371	8.255625
80.336998	-185.684006	1075.369019	2.734375	-49.476875	28.074375
136.212997	-266.692017	967.947998	5.022500	-23.979376	28.105000
124.745003	-235.947998	1148.630005	4.720625	-35.446251	32.060001
236.985001	-192.516006	1161.744995	30.305626	-31.045000	22.168125
150.609009	-111.446999	1148.264038	34.418125	-17.679375	44.222500
161.040009	-289.933014	947.940002	28.153126	22.461250	53.095001
93.390999	-34.221001	1084.458008	19.306875	-24.465000	52.688126
176.595001	-19.032000	1161.196045	17.990000	-22.417500	39.405624
180.255005	60.938999	1257.149048	5.127500	-0.039375	29.194374
192.882004	60.633999	1217.376953	-15.058750	-4.156250	32.200001
208.376007	-9.699000	1178.581055	-7.236250	-14.669375	33.993752
301.584015	1.952000	1199.198975	-8.001875	0.253750	50.207500
152.134003	-18.605000	1053.042969	-4.541250	-0.774375	35.577499
259.006012	-30.439001	1036.511963	-7.791875	-1.859375	40.158127
173.300995	-54.107002	1057.312988	-11.816875	6.343750	50.413124
224.663010	-164.334000	1076.588989	-14.870625	12.556250	56.560001
178.852005	-160.613007	1076.527954	-0.931875	3.832500	41.991249
236.802002	-129.563995	1049.139038	5.381250	-19.276251	39.130001
208.436996	-135.847000	1048.956055	1.614375	8.448125	44.856876
79.117004	-66.794998	1054.506958	12.390000	19.818750	62.671875
181.962997	-79.422005	1201.883057	28.398125	33.705002	64.535622
158.783005	-41.541000	1144.786987	22.133125	46.549999	52.412498
169.214005	15.250000	1138.077026	22.951250	51.594376	18.405624
63.623001	47.091999	1085.860962	17.281250	49.424374	35.756874
-103.516998	58.804001	1094.401001	20.387501	70.997498	26.057501
-45.506001	96.319000	1061.400024	5.923750	71.999374	40.000626
-177.693008	116.570999	1087.630005	13.650000	89.840622	36.736874
-202.093002	104.614998	1016.565002	11.790625	92.076248	18.059999
-355.019989	175.375000	887.001038	30.314375	78.605621	-18.309376
-155.428009	215.391006	946.109985	51.244373	40.687500	-34.794376
-251.076004	190.259003	910.242004	29.876875	51.887501	-15.557500
-340.684998	150.487000	907.863037	12.123125	64.570625	-6.028750
-444.994995	156.953003	834.906982	-2.100000	67.602501	-9.673125
-425.963013	136.762009	829.539001	-4.331250	63.638748	-16.918125
-450.240997	98.392998	791.231018	7.083125	57.487499	-22.255625
-510.082001	92.415001	758.962036	22.014999	36.999374	-41.483749
-356.850006	104.188004	772.992004	22.115625	21.748125	-37.953125
-542.046021	131.028000	642.879028	27.986876	18.746876	-31.040625
-497.638000	58.499001	734.440002	28.809376	29.242500	-39.410000
-517.768005	161.772003	640.500000	20.864374	11.768750	-38.066875
-475.983002	67.587997	616.832031	29.701876	34.562500	-42.380627
-580.414978	44.347000	611.463989	34.912498	-13.116250	-52.486874
-460.183990	-64.293999	673.317993	36.653751	-6.903750	-58.043125
-566.018982	18.849001	650.199036	31.478125	-19.495001	-50.010624
-433.893005	-107.604004	765.001038	32.759998	-15.925000	-48.855625
-550.036987	-38.979000	744.200012	15.303750	-6.475000	-35.875000
-519.231995	-56.852001	730.780029	16.607500	-24.784374	-42.043751
-635.559021	-103.944000	791.414001	13.921250	-16.764999	-31.631250
-538.203003	-108.458000	738.893005	9.983750	-22.190001	-36.028126
-556.075989	-131.089005	698.999023	7.520625	-32.900002	-36.154999
-500.993011	-174.154999	737.002014	4.086250	-44.056252	-29.198750
-541.130981	-147.132004	716.627991	6.842500	-49.883751	-24.180626
-453.901001	-177.143997	838.872009	3.093125	-51.939999	-34.527500
-404.002991	-169.884995	868.640015	-6.746250	-60.799374	-33.586876
-358.192017	-163.541000	981.673035	-4.116875	-57.487499	-38.377499
-361.973999	-180.804001	985.820984	14.625625	-62.282501	-30.865625
-271.937988	-160.856995	1008.513000	-3.250625	-64.006248	-34.509998
-239.119995	-189.404999	1062.192993	-0.118125	-66.460625	-24.854376
-231.861008	-105.469002	934.642029	4.795000	-63.910000	-22.959999
-57.950001	-109.922005	926.041016	-0.210000	-63.756874	-27.356874
10.309000	-190.197998	867.725037	-1.557500	-63.070000	-13.002500
-41.114002	-190.197998	928.054016	-2.161250	-61.263126	-12.945625
87.168999	-186.111008	905.301025	-6.002500	-75.687500	-18.025000
91.561005	-310.612000	1025.044067	-7.293125	-61.512501	-6.903750
85.948997	-151.707001	883.036011	-6.046250	-79.716873	-11.138750
180.194000	-319.334991	1042.551025	7.643125	-59.911251	-14.988750
164.822006	-106.017998	1028.703979	19.013750	-60.016251	-20.899376
251.747009	-253.089005	1139.358032	5.985000	-41.838123	-24.530624
271.511017	-154.391006	1138.992065	-20.785625	-24.298750	-25.103750
287.187988	-304.634003	1088.484009	-0.083125	-11.200000	1.671250
367.037018	-191.600998	1107.088989	-1.719375	-34.676250	8.076250
321.470001	-234.667007	1066.951050	0.026250	-29.675625	23.891874
265.289001	-193.492004	994.848999	8.264375	-19.831875	21.980000
331.046997	-181.414001	1069.573975	-0.560000	-41.453125	38.832500
318.481018	-196.419998	1012.416992	2.808750	-25.038124	28.135626
416.569000	-154.940002	976.609985	15.120000	-19.149376	22.128750
360.937012	-177.815002	949.098999	19.092501	-15.806875	27.851250
355.386017	-147.376007	952.515015	23.826250	-15.723750	9.100000
442.311005	-129.746994	985.088989	26.495001	-14.144375	22.907499
451.826996	-92.170998	994.483032	25.825624	3.163125	27.203751
424.987000	-76.860001	1019.798035	7.253750	18.514999	36.102501
346.114014	-115.473000	966.179016	6.409375	-27.951876	26.328751
414.860992	-45.567001	1011.502014	18.641874	-42.319374	9.261875
479.520996	-42.639000	1088.849976	0.363125	-17.530624	17.828125
421.937012	-152.988007	991.738037	-12.411875	-7.870625	45.141251
452.864014	-233.507996	984.967041	6.610625	23.218124	37.064999
415.837006	-145.302002	950.380005	10.473750	17.430000	27.199375
441.518005	-160.917999	962.945984	3.893750	15.728125	32.204376
441.395996	-138.042999	990.395996	3.084375	8.868125	34.081249
454.571991	-116.205002	998.265015	5.915000	21.704374	28.481251
389.667999	-123.769005	1026.264038	3.425625	24.010000	28.056875
439.993011	-141.031998	1056.276001	-8.351875	16.393126	28.818125
337.269012	-118.278999	992.958008	-6.991250	17.106251	31.863125
325.923004	-187.819000	1031.937012	1.338750	17.972500	31.570000
237.107010	0.610000	972.645020	30.231251	25.195625	24.500000
303.963013	-93.452003	1026.324951	28.284374	38.412498	41.243126
253.393997	-71.918999	1040.660034	25.528126	50.181252	45.924374
188.124008	-22.509001	1099.098022	23.401875	67.348747	42.424374
155.306000	-2.623000	1095.072021	18.633125	66.959373	41.168751
44.529999	-14.945000	1104.893066	8.483125	69.440002	46.029373
48.373001	-14.152000	1118.130005	7.113750	65.891876	35.870625
-40.077000	41.785000	1036.634033	0.949375	60.851875	25.016251
-35.685001	35.075001	1037.122070	9.275000	71.308128	14.813750
-6.588000	90.584999	967.155029	10.298750	59.311874	8.330000
-101.138000	124.013000	905.239990	1.456875	57.662498	7.988750
-168.238007	131.089005	794.708008	15.728125	60.160625	-4.449375
-285.541016	108.275002	833.199036	19.578125	51.891876	-8.561875
-319.884003	43.249001	883.341003	7.074375	33.888748	-8.806875
-380.640015	-90.341003	890.783020	14.157500	33.420624	-21.131250
-275.110016	-23.607000	863.333008	12.932500	-6.728750	-51.607498
-236.985001	-19.825001	878.156006	20.269375	1.903125	-52.364376
-314.272003	-75.579002	859.124023	25.681250	31.762501	-49.778751
-233.569000	-32.330002	860.710022	16.415001	3.469375	-44.738750
-290.420990	-72.895004	902.799988	20.558125	-2.021250	-36.540001
-380.579010	-54.961002	854.976013	18.361876	11.676875	-37.791248
-240.949997	-107.420998	833.442993	15.190000	-11.046875	-47.656876
-304.817017	-50.996002	833.015991	23.528749	-11.112500	-62.146873
-273.645996	-63.928001	837.713013	13.339375	-14.704375	-40.433750
-248.697006	-45.079002	781.837036	15.850625	-16.638124	-33.468750
-267.790009	-75.884003	818.315002	14.262500	-11.414375	-27.925625
-191.173996	-85.827003	804.101990	-0.861875	-32.208752	-25.003124
-292.494995	-134.444000	849.608032	2.581250	-20.011250	-22.102501
-233.020004	-87.108002	866.687988	7.406875	-29.946875	-39.786251
-181.352997	-57.218002	922.747009	13.282500	-40.683125	-32.917500
-165.188004	-90.402000	981.489990	16.344999	-35.686874	-30.611876
-79.483002	-154.513000	983.015015	4.725000	-23.826250	-20.956249
-121.329002	-145.729004	985.942993	-23.393126	-52.303123	-18.615625
-98.637001	-60.451000	996.617981	-14.726250	-41.518749	-32.816875
-39.284000	-91.256004	967.704041	15.251250	-48.816250	-28.682501
-71.248001	-135.481003	1009.184021	-0.503125	-30.388750	-16.891874
-59.902000	-142.190994	959.286011	-7.188125	-39.816875	-18.598125
-46.726002	-105.347000	906.398987	-24.543751	-47.486252	-23.576876
45.506001	-116.083000	1077.869995	-15.128750	-48.431252	-35.704376
106.017998	-152.805008	996.252014	-0.262500	-19.337500	-20.348125
48.007000	-211.487000	942.145020	-14.546875	-16.813126	-3.854375
85.705002	-293.410004	1004.731018	-22.833124	-10.241875	-3.215625
173.484009	-259.067017	1055.360962	-10.613750	-38.145626	-8.395625
109.312004	-135.054001	1091.107056	12.595625	-31.263750	-11.125625
227.895996	-226.188004	1068.781006	-5.788125	-17.753750	-4.935000
226.066010	-149.206009	1045.113037	-5.201875	-24.513124	5.022500
227.529999	-152.378006	1018.273010	-1.321250	-1.990625	10.679375
271.450012	-235.887009	1082.932983	-21.507500	-1.951250	16.445625
232.959000	-179.645004	995.825012	-16.673124	-10.066875	19.451250
236.497009	-291.701996	1020.835022	5.000625	15.561875	30.603125
134.992996	-224.053009	1037.792969	15.745625	-6.444375	20.540625
160.917999	-209.596008	1070.306030	14.411250	-22.181250	24.990000
141.641998	-143.167007	1039.927979	16.406250	-12.350625	23.078125
241.132996	-176.533997	1115.812012	22.434999	-3.661875	31.578751
256.200012	-179.706009	1019.309998	13.496875	-12.705000	52.836876
233.324997	-163.479996	986.004028	17.950624	18.711876	53.843124
237.473007	-119.559998	1058.716064	15.995000	24.661875	56.901249
136.457001	-128.527008	1026.995972	-8.605625	15.890000	55.453125
116.388000	-169.397003	1062.192993	-21.586250	-2.292500	25.178125
219.904999	-150.059998	1034.010986	-16.922501	-4.908750	21.883751
129.563995	-202.214996	1021.567017	16.275000	0.595000	20.291250
223.992004	-114.741005	972.462036	17.981251	-24.784374	12.722500
199.287003	-145.423996	1039.500977	13.444375	13.488125	36.872501
77.409004	-249.794998	1095.987061	-7.708750	16.865625	26.040001
313.356995	-168.177002	1106.174072	-26.075001	-23.327499	19.481874
46.482002	-284.808990	1053.652954	-5.166875	7.021875	31.469376
207.583008	-257.907990	1180.655029	12.928125	-5.053125	10.705625
199.042999	-156.098999	1124.291016	9.760625	-27.116249	25.676874
180.804001	-208.315002	1111.603027	5.538750	-5.162500	43.671249
104.126999	-127.673004	983.807983	19.775000	17.731874	41.728748
270.839996	-89.974998	1172.114990	12.092500	7.980000	33.963123
222.162003	-54.229000	1027.301025	2.432500	17.893749	51.292500
184.281006	-42.090000	1083.969971	10.132500	51.489376	50.601250
120.169998	-7.991000	1055.177979	11.646250	46.908749	43.540001
94.976997	-4.819000	1105.136963	8.986250	48.133751	29.439375
68.625000	51.423000	1111.480957	2.327500	36.889999	33.083752
-80.336998	21.472000	1004.426025	-2.922500	56.481251	31.390625
12.444000	31.964001	1043.770996	-0.402500	46.742500	27.203751
-186.050003	20.618000	984.356995	26.486250	46.213123	3.618125
-59.719002	70.455002	971.791016	19.359375	31.215626	3.714375
-256.261017	7.564000	884.072998	15.758750	54.337502	11.707500
-185.257004	4.148000	945.622009	32.423126	48.908127	-9.082500
-268.156006	77.225998	973.316040	24.228750	15.242500	-11.138750
-325.191010	63.867001	972.218018	31.753750	43.846249	-18.611250
-250.832001	90.524002	988.809998	15.063125	30.695000	-28.721874
-254.370010	46.909000	1039.989014	5.521250	22.876875	-19.652500
-228.567001	-5.795000	991.250000	5.184375	46.283127	-21.336876
-361.791016	2.867000	887.976990	2.699375	20.846874	-17.171875
-156.098999	29.889999	837.530029	14.341250	26.031250	-38.062500
-429.013000	111.081001	649.406006	24.233126	2.616250	-32.493126
-174.033005	109.068001	808.432983	26.389999	2.642500	-40.258751
-251.076004	9.821000	658.861023	-2.870000	14.787500	-8.071875
-475.128998	34.098999	645.257996	15.741250	18.401251	-26.665625
-285.053009	-53.862999	732.671021	14.048125	12.070625	-50.045624
-364.657990	-25.986000	705.708984	5.411875	-3.981250	-32.878124
-377.834015	-96.441002	816.057983	25.195625	-14.441875	-41.916874
-289.384003	-66.612000	804.041016	10.101875	-30.537500	-38.504375
-486.475006	-117.486000	838.322998	18.453751	-1.207500	-27.046249
-221.552002	-92.170998	944.768005	3.762500	-51.161251	-47.849377
-336.658997	-57.522999	880.473999	1.640625	-33.582500	-30.944374
-237.350998	-68.014999	876.447998	6.107500	-32.996250	-45.180626
-279.319000	-85.034004	994.239014	-4.908750	-29.168125	-49.634377
-159.087997	-54.046001	906.887024	2.848125	-30.511250	-50.124374
-241.926010	-113.459999	930.921021	12.713750	-19.166876	-37.148125
-246.928009	-149.815994	937.265015	6.098750	-18.046875	-33.044376
-127.917000	-283.955017	1017.296997	5.586875	-26.840626	-22.981874
-133.406998	-147.619995	1013.515015	20.676250	-67.143127	-48.330624
3.660000	-266.631012	1000.460999	-12.048750	-29.448126	-34.921249
-88.694000	-125.293999	979.233032	-34.304375	-36.802502	-19.726875
-124.806000	-284.503998	992.348022	-4.978750	-43.439377	2.415000
-131.333008	-304.024017	866.932007	-15.938125	-16.883125	-0.008750
-149.938004	-216.488998	1069.452026	-15.855000	-50.732498	-23.240000
-18.117001	-355.507996	1045.600952	-14.332500	-40.131874	-19.136250
-61.427002	-184.708008	1083.542969	-6.903750	-47.901875	-21.393749
47.214001	-148.169006	1115.812012	20.881874	-42.595001	-6.724375
47.824001	-176.900009	1033.523071	6.230000	-42.498749	8.036875
169.275009	-161.833008	1058.411011	-6.803125	-11.624375	16.874374
63.989002	-186.964996	976.366028	-10.303125	-11.620000	1.666875
191.600998	-180.011002	1074.880981	-11.296250	-18.751249	-4.326875
132.919006	-199.104004	1043.343994	-8.181250	-9.782500	11.878125
146.033997	-215.330002	1093.912964	-0.783125	-21.463751	8.001875
187.147995	-147.436996	1207.860962	16.183125	-22.675625	16.104376
163.296997	-163.968002	1089.276978	20.251875	-15.872500	26.775000
209.839996	-204.899002	1131.183960	16.834999	-10.167500	29.693125
218.319000	-233.630005	1093.181030	16.008125	-16.918125	29.452499
212.889999	-231.738998	1029.984985	-16.113125	-29.255625	33.674374
176.656006	-261.324005	942.755005	-1.798125	-17.618126	40.018124
207.400009	-272.243011	983.380981	14.966875	0.503125	26.411875
284.626007	-249.551010	1077.015991	5.114375	-15.850625	33.849377
227.712997	-301.401001	1024.129028	11.344375	7.000000	30.401875
267.972992	-156.221008	1072.868042	6.103125	-35.525002	3.801875
392.718018	-98.576004	1134.355957	6.868750	-48.002499	11.353125
327.082001	-134.322006	1069.329956	11.760000	3.902500	37.878750
212.707001	-78.385002	1014.247009	9.795625	16.270624	46.654999
238.632004	-92.292999	1034.682007	14.678125	5.013750	54.954376
302.071991	-123.220001	1004.304016	12.661250	6.636875	60.781876
291.274994	-142.374008	1084.458008	11.401250	20.181875	55.825001
169.214005	-115.655998	1125.693970	6.680625	27.518749	48.269375
313.601013	-72.346001	1179.801025	-3.399375	13.085625	39.287498
223.931000	-68.259003	1177.056030	-8.977500	23.240000	43.141876
275.658997	-78.018997	1179.801025	-3.136875	47.250000	29.373751
228.872009	-43.371002	1078.419067	-20.400625	20.111876	35.966873
111.203003	-66.551003	1101.110962	-24.701250	-19.355000	49.651875
138.470001	-65.758003	1077.077026	0.905625	50.294998	39.545624
138.714005	-146.888000	1105.259033	13.413750	93.121872	55.912498
-75.579002	-101.503998	955.687012	17.740625	95.230621	50.824375
-46.237999	-93.025002	1057.801025	19.184376	91.371872	30.266251
-161.466995	-76.127998	968.130981	17.972500	81.016251	25.554375
-205.264999	-50.935001	984.906006	19.324375	73.014374	16.861250
-211.487000	-38.674000	880.901001	17.674999	61.250000	16.379999
-320.127991	-4.575000	909.510010	37.681873	60.042500	14.441875
-317.261017	-5.490000	894.869995	33.827499	60.147499	4.445000
-342.393005	40.869999	788.973999	23.940001	50.658127	-15.548750
-395.402008	80.215004	785.741028	9.546250	40.289375	-34.488125
-396.865997	128.770996	759.389038	20.326250	30.585625	-34.256248
-361.912994	42.639000	767.440979	35.380627	42.861874	-21.673750
-422.119995	95.343002	767.257996	19.236876	21.485624	-21.485624
-439.809998	39.223000	792.572998	23.060625	29.111250	-26.626249
-364.902008	43.371002	780.983032	20.186251	23.301250	-38.478127
-462.380005	38.307999	716.627991	16.922501	5.871250	-36.224998
-413.274994	-32.025002	688.445984	26.363750	20.680626	-33.713749
-468.419006	-4.148000	680.210999	39.908749	-7.940625	-51.205002
-477.446991	-41.174999	620.492004	27.965000	-7.678125	-70.559998
-456.584991	-51.605999	653.554016	36.955624	-21.555626	-60.471249
-499.773010	-81.251999	746.640015	37.349377	-22.382500	-54.298126
-417.911011	-79.178001	719.983032	43.089375	-30.327499	-36.146252
-450.667999	-130.540009	853.328979	50.246876	-23.388750	-34.527500
-390.888000	-50.081001	867.664001	47.315624	-37.778126	-35.796249
-341.782990	-107.787003	913.902039	22.885626	-51.358124	-30.371250
-450.912018	-112.239998	915.366028	4.480000	-21.450624	-20.741875
-259.677002	-76.432999	954.101013	-0.879375	-58.791248	-45.053749
-416.141998	-79.300003	842.653992	-16.257500	-48.444374	-27.457500
-342.454010	-246.745010	869.067017	-16.406250	-55.724377	-32.300625
-274.438995	-254.675003	923.966980	-16.485001	-44.310001	-40.801250
-145.729004	-168.908997	974.841003	3.924375	-56.157501	-39.851875
-215.268997	-246.318008	920.916992	11.878125	-38.119373	-32.484375
-167.994003	-192.455002	981.246033	-1.356250	-62.501251	-32.401249
-97.539001	-109.983002	1060.302002	2.598750	-53.073124	-27.860001
-107.665001	-299.876007	1029.070068	-8.023750	-32.221874	-15.443750
-71.553001	-146.522003	1112.213013	-25.948126	-54.241249	-17.482500
36.478001	-184.768997	1037.305054	-3.281250	-35.739376	-7.630000
58.376999	-227.042007	1077.565063	-9.043125	-19.376875	3.154375
29.646000	-211.304001	1028.703979	-17.793125	-31.040625	14.148750
11.102000	-326.532990	1092.021973	-11.808125	-19.831875	8.028125
62.403000	-260.287018	1053.286987	-9.804375	-27.426874	7.341250
60.024002	-274.011993	943.426025	-3.845625	-19.486250	10.084375
67.771004	-246.561996	951.539001	-6.505625	-25.878124	13.798750
89.974998	-264.984009	882.609009	2.047500	-37.086876	1.885625
226.919998	-302.864990	1064.328003	11.690000	-31.198126	-0.135625
124.745003	-219.904999	987.101990	2.091250	-32.046875	12.105625
258.884003	-254.126007	1082.384033	11.348750	-33.621876	16.502501
208.559006	-299.022003	1078.052979	17.311874	-9.830625	41.330624
264.069000	-285.723999	1146.860962	16.940001	-15.955625	33.018124
248.880005	-162.869995	1051.884033	20.085625	-15.395625	33.293751
271.877014	-137.798996	1109.833984	24.723125	9.642500	25.068750
228.811005	-42.272999	1108.492065	18.698750	1.868125	28.673750
204.044998	-36.660999	1042.612061	17.154375	-5.075000	41.133751
262.421997	-99.064003	1070.306030	0.988750	-7.301875	52.565624
119.194000	-137.432999	986.187012	-28.783125	-31.202499	50.395626
274.256012	-256.505005	925.247986	-34.706875	-20.754999	41.667500
225.761002	-252.417999	1162.660034	11.812500	20.916876	53.283127
243.389999	-224.723999	1111.907959	11.519375	10.246250	37.463123
142.434998	-157.440994	1058.899048	19.656876	3.806250	26.888750
293.653992	-233.141998	1121.180054	6.965000	-2.550625	17.644375
207.949005	-68.014999	1053.042969	10.469375	-2.139375	7.861875
214.048996	-125.721001	1071.098999	15.723750	8.723750	18.274376
224.175003	-92.842003	1149.239990	22.697500	1.876875	11.795000
223.748001	-84.240997	1046.821045	31.018749	10.893750	19.000626
218.684998	-47.275002	1177.848999	26.744375	41.851250	36.010624
158.112000	-39.101002	1040.537964	23.436874	42.595001	55.155624
132.858002	7.015000	1101.721069	-3.364375	27.864374	38.263748
37.820000	-34.342999	1051.151978	13.925625	41.278126	29.369375
23.912001	112.667000	1199.687012	14.949375	53.567501	14.901250
24.034000	0.000000	1139.479980	-10.307500	49.809376	34.566875
-57.950001	12.566000	1081.468994	-8.977500	60.060001	35.774376
-76.127998	61.243999	1068.781006	-9.926875	69.391876	32.046875
-65.270004	-38.003002	1105.015015	-4.200000	63.800625	21.393749
-106.567001	-3.233000	1040.904053	7.446250	70.656250	11.974375
-206.363007	9.760000	940.315002	20.584375	59.819374	-4.602500
-287.127014	29.280001	834.785034	14.275625	68.739998	-0.573125
-273.768005	156.709000	767.319031	13.190625	57.981876	-4.698750
-341.295013	43.188000	838.689026	10.132500	63.218750	-10.517500
-312.686005	129.625000	729.559998	13.930000	37.318748	-22.553125
-388.936005	64.660004	807.640015	24.810625	33.923752	-23.878750
-377.589996	48.434002	832.710999	27.645624	28.529375	-32.554375
-350.261993	96.014000	830.088013	29.124374	9.314375	-37.817501
-343.369019	39.589001	833.931030	27.737499	22.019375	-32.606876
-284.748016	149.938004	784.093994	9.183125	12.455625	-30.625000
-369.355011	24.095001	735.294006	12.175625	10.473750	-16.642500
-571.936035	32.513000	686.494019	7.892500	8.649375	-21.205626
-463.234009	-37.881001	733.585999	21.468124	0.665000	-40.573750
-575.962036	7.930000	752.434998	17.018749	-3.876250	-51.795624
-411.322998	29.829000	782.385986	27.142500	-16.323126	-64.448128
-572.973022	61.487999	790.987000	35.778751	-9.226875	-47.118752
-360.876007	-0.122000	812.458984	15.098125	-14.083125	-45.705624
-474.458008	-123.220001	773.663025	-1.006250	0.783125	-9.318750
-476.410004	-193.675003	794.036987	24.766874	-7.761250	-31.924376
-404.856995	-187.453003	902.434021	11.545625	-38.753750	-63.564377
-291.580017	-156.891998	905.728027	9.572500	-23.668751	-59.618126
-367.708008	-91.805000	810.445984	-14.490000	-29.448126	-36.671249
-240.645004	-57.889000	804.651001	-3.500000	-26.250000	-23.016874
-257.420013	-149.449997	692.716003	-4.405625	-17.797501	-25.847500
-215.085999	-71.248001	792.450989	-22.938126	-50.146252	-31.167500
-234.362000	-219.050995	800.869019	-21.559999	-40.083752	-11.563125
-361.730011	-211.242996	629.031982	-23.616249	-36.798126	-32.204376
-239.119995	-250.283005	794.341980	-31.880625	-78.036873	-41.168751
-214.658997	-405.162018	948.794006	-25.563126	-75.123123	-45.241875
-159.210007	-301.828003	1076.040039	-9.546250	-81.869377	-46.856251
1.525000	-389.119019	1059.447998	3.740625	-44.834999	-25.983126
-144.143005	-358.679993	1022.786987	14.984375	-26.840626	-21.288750
33.611000	-289.933014	1044.015015	19.888750	-63.940624	-31.495625
123.952003	-389.240997	1234.945068	13.238750	-27.247499	-18.353125
54.229000	-240.279007	1070.977051	-11.851875	-22.089375	-7.280000
79.483002	-319.518005	1118.251953	-2.371250	-12.880000	2.121875
36.295002	-295.179016	1190.719971	5.573750	-4.081875	5.013750
44.713001	-332.144989	991.494019	-6.492500	-18.991875	21.017500
40.748001	-337.024994	1018.760986	0.717500	-39.291874	7.743750
157.136002	-282.125000	1051.884033	-31.561251	-39.738125	10.631250
167.750000	-282.308014	1090.009033	-22.430626	-34.168751	6.982500
192.576996	-286.821991	944.341003	2.196250	-25.410000	-2.393125
209.962006	-288.286011	1094.156982	39.519375	-14.988750	-11.493125
284.626007	-246.195999	1015.528015	27.750626	-36.028126	-9.314375
206.667999	-142.251999	934.276001	21.105000	1.006250	21.936251
178.425003	-231.617004	1016.687012	19.280624	9.371250	28.923124
226.066010	-324.519989	913.353027	6.930000	8.868125	31.219999
188.550995	-271.023010	846.130981	18.073126	-0.875000	30.489374
199.835999	-378.382996	1017.174988	22.688749	-9.638125	47.140625
276.817993	-314.638000	1131.977051	31.841249	-8.325625	48.965000
217.221008	-331.473999	1038.098022	11.668125	4.926250	61.547501
83.142998	-258.274017	945.500000	12.910625	-8.579375	37.730000
222.528000	-176.473007	934.093018	17.023125	-35.258125	9.266250
320.067017	-131.028000	1076.588989	15.106875	-35.310623	2.559375
354.105011	-119.681999	1038.646973	24.430000	-7.406875	17.688126
322.812012	-149.572006	1058.899048	31.106251	-2.261875	35.494373
312.259003	-92.232002	1163.880005	29.190001	6.326250	38.587502
265.593994	-90.219002	1082.140015	25.230625	2.235625	62.033127
212.341003	-30.500000	1032.364014	21.218750	12.088125	50.636250
244.122009	-42.761002	1095.072021	8.286250	-4.125625	47.945625
158.417007	37.637001	1136.917969	22.343124	-3.456250	38.976875
215.451996	-15.311000	1138.260010	18.020624	12.945625	41.518749
243.878006	85.339005	1180.838013	14.603750	2.808750	25.318125
357.277008	-0.671000	1205.055054	13.641250	15.316875	39.195625
227.225006	46.726002	1067.011963	3.080000	49.905624	55.960625
176.290009	61.243999	1015.283997	6.711250	38.206875	51.078125
243.451004	62.830002	1032.485962	7.748125	34.326248	43.233749
161.893997	94.550003	1071.770020	11.606875	50.461250	20.365625
-67.771004	254.553009	1010.526001	10.005625	19.468750	-4.265625
208.742004	118.523003	1127.218994	5.530000	55.930000	-5.241250
-94.733002	134.444000	1054.994995	-4.895625	87.959373	7.980000
-86.681000	78.873001	992.958008	-1.505000	52.972500	-11.904375
43.980999	48.678001	1039.440063	1.890000	46.965626	-17.412500
-49.288002	-3.843000	1011.807007	10.329375	59.071251	-0.695625
-102.418999	39.528000	917.684021	15.946875	49.039375	-4.825625
-190.625000	147.376007	951.661011	19.376875	40.298126	-5.613125
-285.358002	139.018997	828.440979	10.053750	50.605625	-8.513750
-272.548004	147.803009	863.820984	24.167500	30.471874	-12.228125
-231.434006	88.084000	869.311035	17.377501	39.528126	1.645000
-263.886017	96.441002	818.376038	16.926874	42.638748	-6.588750
-353.128998	115.107002	768.112000	14.004375	36.443748	-19.376875
-381.738007	71.308998	780.434021	16.611876	27.405001	-37.528751
-329.705017	142.800995	757.315002	16.590000	13.501250	-54.328751
-384.117004	147.925003	779.275024	14.651875	6.374375	-44.939999
-452.925018	33.611000	833.687012	16.209375	22.588125	-26.775000
-439.078003	21.410999	808.677002	6.203750	0.301875	-48.667500
-371.795013	4.331000	739.259033	9.686250	-7.923125	-59.246250
-339.891998	47.702000	797.635986	13.825000	-5.630625	-70.485626
-367.037018	3.965000	764.330017	11.388125	-12.280625	-43.732498
-351.970001	-91.744003	743.528992	5.171250	-14.577500	-25.217501
-379.968994	-58.194000	830.880981	5.643750	-36.093750	-26.735624
-306.585999	-137.005997	835.028992	3.548125	-11.602500	-29.793751
-340.014008	-85.217003	730.963013	-6.339375	-24.504375	-47.578125
-256.993011	-51.850002	884.866028	-4.256875	-39.576248	-40.573750
-244.122009	-59.719002	826.489014	18.611250	-22.876875	-31.263750
-314.881989	-43.493000	862.783997	10.871875	-42.533749	-13.431250
-225.944000	-134.199997	951.721985	4.353125	-40.276249	-3.451875
-266.752991	-140.361008	902.799988	-13.654375	-42.205624	-10.898125
-271.205994	-122.732002	947.085999	5.792500	-46.256874	-34.728748
-143.533005	-140.178009	788.364014	7.634375	-45.613750	-55.138126
60.084999	-147.193008	1196.636963	17.482500	-57.820000	-26.928125
-304.938995	-103.821999	1084.213989	5.394375	-30.008125	-4.475625
-90.524002	-127.063004	1164.307007	-9.406250	-48.873123	-14.783125
-107.116005	-86.315002	1234.822998	-22.251249	-55.553749	-15.811250
-9.943000	-109.007004	1177.483032	-19.766251	-15.666875	-16.051874
-51.972000	-129.990997	1013.332031	-3.530625	6.313125	8.303750
-16.409000	-211.304001	989.603027	-23.060625	2.996875	10.307500
-33.306000	-179.584000	872.971008	-18.930626	-25.466875	13.746250
-14.335000	-195.688004	999.973022	-6.667500	-15.111250	6.466250
45.383999	-262.787994	1155.706055	18.116875	-5.722500	5.320000
-94.550003	-100.223000	984.661987	29.509375	-13.440000	5.810000
-74.481003	-208.986008	1298.263062	-0.157500	-23.743126	-4.515000
51.118000	-112.544998	1066.036011	-4.606875	-67.458122	-8.054375
102.906998	-39.650002	1006.134033	12.796875	-61.232498	9.051875
172.203003	-103.700005	967.338013	-9.288125	-33.180000	24.526251
123.342003	-77.958000	1004.242981	-2.856875	-20.855625	14.056875
223.076996	-98.576004	1101.233032	-17.885000	-0.621250	16.121876
121.207001	-73.504997	1162.660034	-18.659374	9.047500	22.220625
84.729004	-106.994003	1167.600952	-25.786249	4.860625	22.964375
96.624001	-154.208008	1087.385986	-37.804375	-17.228750	15.198750
208.559006	-176.229004	1146.677979	-29.697500	-33.534374	17.570000
218.197006	-215.757004	1035.657959	-8.155000	-9.209375	46.405624
220.332001	-234.240005	1047.735962	23.296875	-7.485625	42.332500
217.770004	-152.682999	915.915039	22.141874	1.631875	42.481251
377.955994	-97.112000	1127.036011	18.865000	-21.091875	40.529999
194.102005	-117.363998	987.346008	9.371250	-18.567499	64.929375
269.253998	-252.235001	1088.422974	14.301875	2.817500	59.311874
173.484009	-79.543999	987.406982	15.295000	-13.938750	40.669998
262.178009	-147.253998	1089.886963	4.528125	-8.785000	40.350624
172.203003	-81.434998	1154.302979	6.811875	-18.755625	38.666248
259.860016	-65.026001	1139.235962	-2.121875	-7.914375	42.411251
229.238007	-79.422005	1116.483032	-25.624374	-15.159375	45.447498
162.382004	-85.948997	1107.454956	-28.896875	-24.600624	29.968750
252.113007	-37.881001	922.807983	-17.351250	2.664375	32.764374
286.151001	-185.867004	1048.102051	-13.199375	28.345625	27.260626
256.809998	-142.984009	933.604980	-12.223750	25.484375	32.147499
117.730003	-280.234009	1085.677979	8.404375	40.118752	19.486250
258.640015	-195.016998	1196.576050	21.455000	31.548124	6.584375
208.619995	-105.164001	1172.114990	26.958750	46.856251	14.844375
38.917999	-92.232002	1061.521973	27.383125	66.233124	16.817499
28.487000	-52.764999	1017.785034	8.203125	54.617500	1.596875
51.545002	-55.998001	1086.227051	2.900625	59.416874	2.016875
46.299000	-165.432007	1052.738037	13.374375	50.828751	7.507500
-14.945000	-105.347000	952.820007	30.970625	56.879375	2.498125
-60.268002	-100.710999	943.609009	29.207500	48.431252	-5.263125
-201.421997	4.392000	904.325012	31.758125	57.172501	-7.673750
-134.261002	-4.819000	885.720032	31.355625	49.332500	-13.545000
-149.328003	56.852001	929.884033	22.408751	40.000626	-14.030625
-137.738007	90.036003	917.622986	15.054375	47.131874	-2.835000
-218.014008	86.375999	853.268005	11.952500	46.786251	-1.850625
-204.106003	73.078003	809.104004	17.657499	31.219999	-14.376250
-201.788010	86.010002	838.262024	8.920625	28.914375	-17.587500
-329.217010	-16.714001	777.200989	13.186250	28.975624	-15.592500
-295.179016	2.867000	809.470032	8.995000	8.513750	-23.318750
-354.776001	15.250000	785.009033	18.598125	2.213750	-28.376249
-325.862000	-11.651000	831.674011	18.484375	-5.285000	-49.135624
-122.610001	70.698997	812.031982	16.309999	-5.411875	-48.969376
-258.213013	-54.411999	930.311035	12.442500	11.064375	-35.735001
-296.765015	32.390999	911.583984	-6.584375	18.252501	-27.015625
-377.101990	-91.256004	781.348999	-0.332500	7.306250	-16.121876
-396.622009	-132.309006	843.385986	4.519375	4.086250	-30.887501
-447.373993	-87.840004	764.208008	-4.633125	-15.548750	-55.348125
-457.622009	-236.619003	772.565002	-17.434376	-5.604375	-21.328125
-447.679016	-138.042999	710.772034	-8.553125	-36.596874	-52.211250
-239.059006	-192.089005	854.671021	21.656250	-46.602501	-55.195000
-282.002991	-198.677002	792.390015	22.885626	-48.439999	-53.348751
-63.013000	-120.414001	770.002991	22.518126	-45.950626	-44.161251
-213.805008	-247.660004	999.668030	9.830625	-30.563749	-12.560625
-279.502014	-248.514008	914.572998	-34.387501	-27.750626	-14.498750
-146.826996	-341.477997	1083.725952	-42.966873	-66.749374	-14.743750
-229.542999	-300.303009	1019.187988	-37.913750	-46.978748	-12.726875
-67.404999	-347.273010	1128.134033	-11.681250	-42.179375	-29.815624
-92.292999	-346.235992	1013.027039	-17.889376	-17.701250	-30.091249
-63.074001	-290.299011	981.002014	8.365000	-38.959373	-37.708126
1.525000	-335.134003	1112.822998	11.746875	-37.568127	-37.712502
-24.583000	-311.527008	1072.807007	-4.808125	-36.255627	-34.860001
48.312000	-169.701996	1040.781982	-9.598750	-52.639999	-19.958750
34.526001	-218.990005	1203.347046	3.950625	-18.725000	-5.341875
-11.346000	-200.628998	1118.922974	17.600624	-3.937500	1.487500
59.719002	-171.776001	1083.604004	23.493750	-8.680000	17.136875
177.936996	-341.722015	1063.108032	4.528125	-10.416875	21.376249
216.550003	-297.252991	998.630981	-10.688125	-27.781250	3.255000
158.173004	-321.165009	963.556030	-8.946875	-23.270624	15.426250
61.000000	-232.288010	1069.940063	27.886250	-17.460625	4.786250
201.178009	-285.907013	1100.073975	38.272499	3.810625	21.988750
89.548004	-254.979996	1103.307007	16.782499	-6.654375	36.163750
85.155998	-238.022003	1048.406982	7.140000	-4.357500	28.293125
111.751999	-309.819000	1066.157959	-29.605625	-3.001250	31.219999
82.716003	-347.639008	1017.601990	-31.460625	-13.978125	7.188125
293.348999	-235.764999	1133.441040	-24.045000	-22.321251	8.876875
193.309006	-197.335007	868.030029	-5.009375	-24.653126	29.916250
284.626007	-258.884003	1087.508057	14.665000	-17.863125	20.418125
214.781006	-130.845001	1061.338989	24.141251	-6.440000	21.485624
145.119003	-144.020996	1014.064026	32.834373	8.010625	30.940001
267.058014	-280.295013	1148.630005	11.777500	12.950000	44.681873
209.535004	-315.858002	1022.481995	-1.198750	5.595625	57.575001
62.525002	-277.123016	954.710999	6.265000	23.769375	63.691250
218.746002	-233.020004	988.260986	6.645625	-16.703751	45.670624
167.018005	-182.572998	1062.619995	-0.297500	-27.794374	49.809376
122.854004	-173.179001	1051.457031	13.930000	4.296250	46.274376
152.012009	-108.702003	1160.159058	9.668750	-10.745000	33.420624
238.570999	-164.761002	1162.294067	7.363125	13.387500	33.184376
123.890999	-109.373001	1084.336060	-8.124375	6.715625	29.583750
143.777008	-154.940002	1131.916016	5.223750	22.045626	28.258125
179.156998	-207.949005	1118.130005	2.576875	14.450625	30.996876
93.513000	-87.596001	1080.249023	11.803750	11.278750	25.007500
177.449005	-168.848007	1130.025024	20.405001	25.838751	16.065001
140.238998	-96.624001	1050.786011	15.041250	2.751875	24.023125
61.366001	-61.792999	1062.010010	43.942501	18.921875	18.541250
164.151001	-141.886002	1083.055054	50.001877	50.942501	3.578750
-37.453999	39.528000	1032.608032	24.080000	49.595001	23.060625
-97.722000	42.761002	979.233032	22.185625	45.500000	4.405625
-8.906000	14.701000	1060.363037	0.621250	39.619999	6.278125
-74.419998	38.125000	981.246033	-10.876250	45.788750	22.277500
-168.481995	117.852005	940.437012	24.666250	43.290627	7.498750
-111.813004	117.852005	717.786987	36.605625	43.001877	16.113125
-223.138000	38.186001	841.921997	20.855625	50.750000	6.308750
-164.822006	101.382004	939.095032	12.114375	38.801876	-15.343125
-247.050003	79.848999	925.919006	31.639999	39.165001	-43.351875
-187.819000	94.976997	925.004028	9.030000	38.237499	-36.889999
-293.532013	57.278999	934.825012	5.958750	38.858749	-37.992500
-211.852997	25.986000	863.942993	1.181250	28.748125	-32.265625
-333.304016	30.805000	830.820007	-3.171875	31.495625	-28.472500
-297.252991	19.580999	806.846985	14.476875	31.858749	-41.313126
-287.371002	-56.119999	806.419983	14.205625	28.030624	-41.991249
-361.303009	31.659000	821.548035	30.795626	15.859375	-37.782501
-418.765015	13.420000	811.117004	41.575626	8.719375	-33.075001
-301.644989	-5.612000	803.674988	27.518749	6.768125	-19.936874
-471.774017	0.549000	723.338013	30.922501	5.394375	-23.419374
-352.701996	11.224000	752.069031	35.695625	-14.634375	-49.573124
-389.485016	25.986000	754.203979	29.434999	-15.334375	-22.820000
-417.300995	-31.781000	794.525024	25.173750	-13.838125	-25.252501
-328.424011	31.354000	743.468018	11.550000	-38.705624	-14.135625
-349.652008	-26.535000	781.471008	-1.916250	-42.411251	-8.050000
-409.309998	-26.352001	875.106018	8.338750	-32.475624	-12.683125
-381.127991	-79.117004	832.466980	-6.951875	-42.455002	-28.927500
-253.699005	-77.714005	954.040039	-13.339375	-58.051876	-34.772499
-227.408005	-50.630001	927.871033	-23.992500	-38.889374	-24.136875
-162.138000	-131.210999	1054.263062	-30.756250	-17.408125	-15.334375
-241.194000	-76.555000	882.548035	20.221251	-10.272500	-22.513750
-215.085999	-119.864998	1141.797974	0.918750	-12.998125	-11.764375
-313.174011	-42.334000	1064.693970	-3.675000	-0.616875	-15.010625
-233.630005	-79.848999	900.543030	-27.361250	-29.771875	-21.297501
-185.318008	-135.847000	1187.853027	-45.329376	-46.300625	-21.721874
-135.847000	-149.022995	1007.903015	-32.663750	-31.469376	-13.199375
-124.562004	-126.209000	1021.384033	-35.122501	-56.113750	-8.785000
-31.720001	-250.710007	1185.779053	-31.465000	-37.913750	7.616875
-199.714005	-93.085999	949.403992	-24.290001	-18.151875	3.863125
31.598000	-201.117004	1119.655029	-6.584375	-10.618125	-0.004375
-34.892002	-338.428009	1090.192017	-12.446875	-1.400000	13.531875
22.936001	-351.970001	1076.527954	-14.030625	-48.798752	-4.585000
87.656998	-246.928009	1173.213013	10.386250	-54.389999	-2.471875
-28.853001	-315.187012	1161.744995	30.209375	-22.889999	8.404375
47.336002	-227.042007	1181.020996	17.136875	-18.650625	3.228750
40.443001	-253.089005	1076.711060	2.476250	-4.497500	17.290001
-5.490000	-196.175995	934.885986	0.695625	-11.466875	4.493125
54.411999	-140.604996	1029.192017	14.196875	-19.267500	4.506250
101.625999	-38.125000	1078.479980	4.291875	-19.101250	22.054375
72.468002	-142.557007	1045.052002	8.015000	-42.279999	27.960625
212.645996	-76.311005	1071.404053	4.764375	-46.996250	-3.718750
326.289001	-73.688004	1178.031982	7.017500	-17.373125	-0.153125
329.949005	-197.884003	1050.786011	6.768125	2.257500	20.168751
335.438995	-139.811996	1087.447021	8.308125	21.743750	30.764999
195.566010	-108.580002	925.919006	-3.631250	30.240000	59.333752
203.800995	-149.876999	993.872986	2.730000	18.182501	64.150627
109.922005	-109.250999	912.072021	6.068125	2.559375	63.376251
158.783005	-112.849998	1030.777954	-0.835625	-6.978125	53.296249
142.069000	-42.395000	1155.706055	15.045625	-6.339375	29.706249
189.832001	-12.810000	1204.261963	8.876875	-13.168750	11.563125
178.912994	13.664001	1021.200989	-10.434375	-21.113750	21.301874
185.134995	-21.594000	1213.838989	4.685625	3.710000	36.470001
186.416000	-37.576000	1140.273071	21.993126	15.120000	41.807499
119.194000	52.826000	1040.843018	17.001249	-13.921250	26.923750
274.134003	-51.056999	1283.806030	-4.795000	8.990625	29.833124
258.640015	-104.126999	1144.848022	-16.200624	19.569374	36.924999
-45.323002	23.973000	993.507019	4.576250	17.110624	9.380000
302.132996	-54.167999	1156.499023	15.820000	45.255001	2.480625
-78.933998	-93.695999	1154.791016	18.094999	106.316872	13.120625
120.414001	-56.424999	1096.109009	-8.627500	55.098751	18.414375
-103.273003	-8.906000	1059.020996	-0.210000	53.703125	37.169998
-178.729996	-66.429001	980.270020	13.899375	72.060623	18.637501
-189.283005	75.579002	885.963989	16.279375	31.587500	-10.981250
44.896000	8.601000	1008.695984	11.375000	59.482498	-7.297500
-150.975006	51.972000	920.551025	-1.933750	59.543751	9.003750
-257.541992	133.772995	826.306030	17.141251	51.664375	5.639375
-171.471008	124.500999	787.083008	27.615000	37.939999	-3.408125
-305.610016	140.421997	796.233032	27.011250	34.960625	4.108125
-247.294006	66.794998	931.226013	12.525625	20.960625	-11.016250
-340.868011	100.162003	833.869995	11.046875	28.988750	-22.924999
-297.192017	54.411999	817.156006	20.973749	11.803750	-49.787498
-290.542999	42.639000	935.862000	7.608125	13.711250	-43.828751
-318.664001	38.796001	823.744019	16.546249	19.792500	-33.188751
-373.259003	13.847000	869.494019	26.075001	7.385000	-45.276875
-334.584991	43.554001	721.203003	23.366875	7.148750	-40.302502
-370.026001	25.010000	795.195984	32.449375	-1.728125	-53.361874
-389.545990	24.888000	871.812012	32.869373	4.571875	-45.727501
-426.817017	25.986000	865.468018	26.722500	-0.223125	-45.408127
-237.107010	-38.430000	872.483032	23.100000	-2.148125	-52.884998
-356.911011	-5.734000	803.187012	8.557500	-10.255000	-31.661875
-373.686005	-16.165001	744.749023	17.731874	-11.987500	-27.947500
-419.924011	-74.603004	757.864014	4.348750	-16.471874	-30.275000
-270.108002	5.002000	713.333984	-7.730625	-30.034374	-28.000000
-377.955994	-42.577999	705.465027	-1.141875	-9.961875	-18.252501
-343.247009	-49.593002	708.880981	-10.543750	-40.512501	-12.324375
-328.424011	-138.165009	799.953979	-4.493125	-51.393124	-20.085625
-212.768005	-182.328995	964.715027	13.623750	-41.680626	-41.514374
-171.471008	-125.293999	1024.800049	6.728750	-51.463123	-23.655624
-229.665009	-136.091003	1091.107056	5.438125	-38.911251	-17.298750
-215.574005	-152.378006	1064.999023	-13.816250	-37.961876	-32.913124
-110.776001	-15.860001	1029.802002	-9.152500	-69.575623	-34.334999
-29.707001	-126.026001	1213.167969	28.629999	-25.305000	-19.569374
-172.874008	-60.207001	922.137024	11.506250	-19.459999	-6.138125
-69.845001	-112.423004	1072.135986	-18.913124	-51.218124	1.890000
-142.800995	-131.393997	1088.605957	-20.615000	-20.951876	-4.318125
-69.540001	-60.329002	870.226013	-29.194374	-34.059376	-14.770000
1.403000	-183.427002	1047.308960	-23.471874	-8.351875	3.854375
-45.506001	-151.402008	1010.098999	-26.285000	-8.566250	4.672500
24.948999	-213.500000	1050.480957	-2.283750	-11.738125	-1.548750
46.665001	-149.022995	1046.027954	2.970625	-12.398750	3.583125
87.168999	-217.831009	1141.737061	-8.133125	-33.438126	7.074375
92.903000	-176.167999	1017.968018	-14.218750	-30.730000	21.227501
52.277000	-164.699997	1111.420044	5.586875	-20.396250	20.461876
72.895004	-167.628006	1114.165039	7.840000	-13.326250	19.210625
105.408005	-90.402000	1058.411011	-6.711250	-29.120001	19.915001
99.795998	-138.653000	1080.310059	-4.458125	-29.286249	18.055626
86.742004	-169.701996	1160.890991	4.637500	-4.786250	10.911250
51.118000	-109.922005	1130.452026	-0.673750	-13.383125	5.783750
207.522003	-142.496002	1221.586060	-11.230625	-8.780625	-0.665000
138.287003	-119.743004	1051.274048	-17.841249	2.826250	21.450624
103.578003	-118.950005	1092.754028	-11.230625	-3.893750	11.729375
238.083008	-183.000000	1157.474976	-18.064375	-4.825625	16.795626
118.035004	-119.804001	913.475037	-3.416875	-10.731875	28.568750
248.574997	-193.065002	1045.113037	26.013750	-4.217500	23.327499
181.902008	-228.994003	996.007996	3.731875	-4.020625	30.699375
209.229996	-199.835999	1013.575989	12.368125	1.242500	27.431250
167.445007	-190.380997	952.942017	10.255000	-5.652500	21.568750
197.518005	-138.531006	963.494995	12.355000	-8.347500	20.934376
222.345001	-190.442001	1065.487061	14.118125	-8.308125	33.289375
217.038010	-172.081009	982.039001	-2.205000	-10.543750	34.527500
170.190002	-167.445007	1032.058960	-2.603125	-13.405000	38.451874
210.876999	-233.020004	1037.915039	-2.065000	-18.506250	39.064377
103.578003	-115.839005	1062.315063	11.996250	-9.030000	35.411251
187.697006	-174.277008	1085.250977	3.819375	-1.780625	52.526249
165.981003	-95.465004	1103.368042	8.268750	-11.348750	42.323750
256.321991	-215.025009	1189.561035	1.706250	-7.026250	44.506874
245.037003	-39.466999	1107.394043	8.491875	-7.052500	30.703751
333.914001	-91.195000	1114.531006	11.016250	20.396250	36.946877
186.721008	11.712000	1047.248047	24.736250	33.696251	32.576248
223.931000	-27.145000	1148.081055	18.480000	43.846249	28.800625
263.703003	-31.720001	1155.035034	-6.221250	45.110626	37.843750
-101.565002	38.612999	830.088013	-7.638750	33.547501	42.918751
270.596008	-107.055000	1139.358032	13.593125	24.184999	23.502501
17.934000	-31.964001	924.393982	-3.758125	34.225624	54.796875
5.551000	-153.475998	1065.730957	3.373125	24.408125	31.115000
-30.012001	-114.375000	1083.115967	3.325000	41.409374	33.945625
-43.431999	-135.847000	1060.729004	20.558125	41.492500	8.596875
-32.452000	-23.363001	1030.777954	22.841875	32.353127	-0.100625
-61.610001	-6.832000	998.936035	17.465000	47.958752	-0.914375
-66.612000	20.374001	885.109985	3.823750	49.468124	4.160625
-165.981003	81.129997	910.181030	8.093750	55.676250	7.166250
-194.529007	17.323999	948.001038	15.456875	58.799999	8.098125
-258.029999	6.771000	932.934021	13.916875	54.145000	-1.325625
-248.514008	20.191000	905.423035	19.823126	42.153126	-9.353750
-247.294006	34.526001	946.049011	25.733749	38.836876	-21.778749
-240.156998	120.231003	836.676025	25.309376	35.306252	-30.804375
-386.557007	77.775002	853.268005	25.440624	41.155624	-31.955000
-279.502014	98.149002	847.838989	21.056875	25.186874	-35.013126
-388.204010	94.550003	799.953979	25.668125	26.048750	-28.730625
-384.848999	5.185000	806.968994	26.586876	31.893749	-36.435001
-323.178009	-7.381000	882.304016	25.410000	14.879375	-30.371250
-449.204010	-3.965000	856.379028	32.668125	15.631875	-32.952499
-404.308014	-38.307999	811.299988	21.743750	12.578125	-42.682499
-440.786011	25.010000	716.994019	22.434999	5.770625	-37.493752
-500.627014	33.000999	714.432007	24.430000	-5.035625	-42.516251
-397.781006	-76.860001	732.914978	19.464375	-9.865625	-51.191875
-551.317993	142.007996	695.583008	16.218124	-2.397500	-36.146252
-432.002014	59.902000	662.216003	24.246250	-37.751877	-18.878124
-373.563995	-32.818001	772.931030	23.550625	-45.009998	-9.909375
-405.040009	-71.065002	868.152039	20.514376	-23.043125	-28.686874
-340.441010	-2.379000	815.509033	12.652500	-43.745625	-44.336250
-259.799011	-2.928000	921.710022	8.846250	-29.881250	-42.017502
-323.544006	-25.986000	834.419006	-3.115000	-43.483124	-25.204374
-294.386017	-123.098000	955.015991	-5.740000	-35.730625	-19.004999
-367.524994	-63.318001	883.341003	-6.225625	-28.415625	-11.970000
-211.914001	-258.700989	983.747009	-1.382500	-25.370625	-20.225624
-289.384003	-43.920002	829.600037	1.973125	-28.704374	-19.840626
-196.419998	-84.485001	956.053040	-11.348750	-41.330624	3.574375
-356.789001	-180.559998	998.204041	-9.051875	-21.424376	-0.380625
-249.977997	-15.921000	877.363037	-15.242500	-37.248749	-30.843750
-164.639008	-153.231995	1094.218018	-2.568125	-41.518749	-26.136250
-246.684006	-66.917000	947.147034	9.148125	-19.595625	-21.105000
-122.122002	-67.832001	1179.922974	0.170625	-27.348125	-19.879999
-206.607010	-100.894005	1089.459961	-19.289375	-13.361250	-12.236875
-42.882999	-205.143005	1111.847046	-16.174376	-27.072500	-29.959999
-39.589001	-81.251999	994.239014	-20.190624	-43.111252	-11.453750
-62.403000	-198.677002	1114.469971	-9.441250	-15.592500	-5.713750
-81.984001	-131.333008	1003.328003	1.159375	-16.550625	-8.509375
-64.660004	-92.415001	1007.049011	-6.811875	-39.318127	0.590625
-113.947998	-184.098007	1046.333008	-11.676875	-36.115623	2.563750
50.325001	-101.198997	894.077026	-19.022499	-59.893749	-0.048125
-22.631001	-200.445999	1123.010010	14.660625	-6.610625	25.151875
181.048004	-168.848007	1204.445068	10.915625	-19.490625	0.844375
86.010002	-131.699005	1181.386963	5.810000	-8.645000	11.480000
99.430000	-151.889999	1113.188965	-10.635625	-11.703125	11.943750
90.341003	-146.460999	1183.094971	-21.310625	-17.241875	3.758125
185.074005	-160.186005	970.692993	-40.783749	-13.921250	17.915625
127.794998	-258.700989	1035.353027	-9.030000	-6.173125	35.043751
192.638000	-119.804001	975.145996	28.166250	-12.538750	14.538125
181.719009	-117.058998	1040.477051	15.443750	-22.225000	21.546875
167.628006	-61.305000	1067.561035	0.743750	-18.410000	25.580626
237.595001	-79.788002	1181.875000	-8.106875	-11.904375	31.320625
152.561005	-108.030998	1106.661987	-7.201250	-6.956250	47.131874
182.145996	-148.291000	987.163025	-5.586875	-25.812500	39.007500
253.333008	-118.461998	1166.503052	1.960000	-1.330000	43.561874
145.667999	-155.733002	953.734985	-1.168125	-2.174375	50.045624
189.832001	-129.990997	1096.718994	15.723750	6.391875	33.884377
140.910004	-63.989002	1084.763062	17.346874	7.258125	31.224375
135.908005	-31.720001	1069.817993	6.090000	18.217501	21.590626
100.528000	41.602001	1105.625000	-0.761250	16.318750	23.677500
180.621002	-82.349998	1150.093994	4.795000	-6.510000	32.095001
139.628998	-79.422005	1123.437012	5.236875	12.508125	33.928123
86.070999	-111.264000	1127.097046	5.971875	44.235626	31.500000
74.603004	-44.713001	1094.218018	11.851875	29.903126	20.453125
102.723999	-106.750000	1123.742065	5.901875	45.167500	25.856251
-42.395000	-17.934000	1070.610962	9.795625	44.454376	27.286875
36.478001	-104.005005	1029.497070	14.485625	42.984375	22.780624
-87.840004	33.916000	1041.758057	8.841875	46.580624	23.817499
-16.409000	-62.708000	985.820984	27.654375	32.738125	11.361875
-229.787003	-26.352001	984.967041	-1.824375	61.652500	44.690624
-106.750000	-85.460999	988.017029	-5.350625	53.895626	29.675625
-223.565002	41.541000	967.582031	-10.145625	43.347500	27.177500
-254.492004	-5.124000	894.809021	7.673750	45.849998	23.375626
-175.313995	12.444000	937.082031	11.108125	23.524376	10.548125
-296.520996	81.191002	859.489990	9.957500	48.195000	12.302500
-306.769012	12.749001	817.095032	11.226250	39.711876	-14.345625
-191.966995	92.598000	887.001038	12.495000	20.873125	-26.245625
-318.541992	59.170002	805.322021	26.985001	47.385624	-7.564375
-335.865997	-9.455000	784.033020	34.960625	33.499374	-22.120001
-364.841003	17.385000	814.593994	27.986876	28.638750	-13.798750
-376.065002	28.914000	874.496033	25.519375	8.907500	-16.856874
-335.317017	10.614000	882.975037	21.660625	0.468125	-16.296875
-391.681000	38.917999	812.458984	16.664375	-2.038750	-17.526251
-327.570007	21.472000	845.093994	19.560625	-11.357500	-23.821875
-374.783997	-1.037000	905.362000	31.071251	-11.624375	-38.088749
-350.567017	91.865997	867.237000	29.623125	-6.881875	-34.264999
-446.276001	69.845001	851.072021	22.014999	-0.013125	-28.450624
-409.859009	99.307999	828.684998	15.933750	-7.945000	-39.891251
-442.494019	87.168999	835.395020	16.983749	-9.279375	-40.508125
-335.134003	62.037003	785.436035	11.567500	-19.788124	-44.747501
-338.550018	29.402000	812.276001	3.797500	-24.976875	-41.413750
-320.188995	41.846001	808.494019	12.744375	-26.070625	-39.567501
-357.277008	37.820000	755.119019	22.636250	-39.983124	-38.968124
-299.510010	69.417999	869.554993	12.512500	-53.952499	-39.816875
-177.509995	-1.647000	867.541992	5.468750	-48.081249	-22.203125
-279.929016	-14.091001	904.569031	-2.896250	-48.090000	-26.656876
-154.330002	-25.681000	983.929993	-4.882500	-57.378124	-26.989374
-245.281006	-120.414001	881.145020	-5.162500	-31.788750	-14.835625
-80.459000	-160.125000	970.632019	-14.809375	-36.028126	-17.815001
-175.557999	-202.581009	1017.968018	-8.347500	-11.449375	-22.881250
-94.611000	-52.704002	811.910034	-14.253750	-5.543125	-28.105000
8.906000	-277.855011	1195.112061	-7.218750	-19.928125	-20.619375
-159.210007	-51.300999	1011.746033	-24.771250	-31.167500	-16.130625
-8.540000	-102.236000	991.005981	-25.571875	-43.089375	-21.984375
-34.465000	-142.313004	1105.136963	-7.245000	-33.158127	-4.226250
-106.932999	-93.573997	963.921997	-7.805000	-7.700000	-5.083750
38.735001	-129.990997	1090.740967	-2.388750	-33.534374	-14.153125
-71.553001	-142.740005	1042.368042	-28.236250	-16.060625	-6.833750
106.689003	-178.973999	1155.645020	-37.415001	-39.318127	-22.395624
84.729004	-154.025009	1072.318970	-24.351250	-21.367500	-16.108749
14.335000	-196.969009	1082.322998	-4.541250	-13.881875	-21.135626
146.705002	-196.664001	1104.282959	-10.972500	-17.666250	-1.080625
12.261000	-265.777008	1103.612061	-22.522499	-3.670625	17.622499
1.037000	-236.192001	1053.592041	-18.843124	-9.485000	2.310000
51.300999	-237.900009	1041.941040	-11.558750	-31.014376	-10.819375
96.746002	-187.209000	1098.488037	-4.383750	-33.197498	-30.940001
228.139999	-196.969009	1052.067017	21.529375	-23.638124	-11.795000
325.069000	-174.277008	1158.511963	18.786249	-19.070625	2.410625
349.225006	-214.415009	1034.560059	10.955000	4.847500	33.031250
338.610992	-193.796997	1251.842041	3.185000	-11.926250	25.698750
277.550018	-174.764999	1091.229004	-29.133125	6.619375	36.833126
196.908005	-333.304016	945.195007	-43.124374	-10.670625	40.000626
325.557007	-281.270996	1118.251953	-10.736250	0.748125	36.006248
185.074005	-199.042999	940.192993	9.073750	12.534375	54.162498
182.755997	-245.708008	993.507019	19.473125	17.552500	58.782501
124.013000	-201.178009	1011.441040	21.761250	4.659375	58.690624
185.867004	-124.500999	1225.368042	55.628124	0.931875	29.841875
115.107002	28.914000	1054.323975	52.333752	-2.012500	32.624374
81.008003	-0.976000	1183.583008	22.413124	9.778125	37.069374
187.636002	33.611000	1112.945068	8.325625	3.399375	27.278126
217.891998	20.007999	1023.031006	4.825625	12.311250	35.411251
188.734009	11.651000	1160.342041	7.210000	25.414375	35.910000
134.626999	34.709000	1049.932007	4.305000	24.486876	38.793125
14.579000	87.291000	1020.408020	23.196251	23.038750	17.434376
179.645004	15.311000	1078.723999	-4.344375	10.368750	2.611875
-13.786000	-65.941002	974.718994	-9.611875	31.998751	28.813749
47.580002	-13.237000	1094.706055	13.024375	46.453751	27.575624
-73.139000	15.982000	1101.354980	22.863750	40.394375	31.705626
-37.271000	-17.323999	1142.774048	16.607500	37.712502	21.949375
-7.076000	38.735001	1159.122070	9.100000	42.074375	13.702500
-59.048000	17.019001	1079.943970	-1.461250	52.517502	27.514376
-169.335999	2.440000	1040.354980	0.831250	55.111874	19.670000
-145.119003	-19.337000	1033.035034	4.558750	43.959999	11.099375
-111.325005	-13.115000	964.715027	6.330625	46.138748	15.483125
-134.261002	26.047001	886.330017	3.753750	46.449375	9.940000
-131.333008	65.453003	927.017029	6.755000	45.775623	7.253750
-231.494995	35.136002	786.168030	11.838750	53.051250	11.287500
-304.817017	80.886002	803.492004	10.539375	34.860001	2.760625
-276.574005	75.639999	780.983032	12.713750	33.963123	5.031250
-373.929993	11.712000	785.252991	16.725624	31.311874	-1.557500
-378.321991	72.590004	787.449036	23.520000	23.235624	-26.127501
-290.908997	22.691999	828.929016	22.758751	21.139999	-26.993750
-416.141998	58.499001	813.130005	22.299376	21.761250	-24.701250
-303.352997	32.390999	766.038025	19.591249	11.628750	-32.501877
-357.947998	33.306000	762.012024	11.725000	0.214375	-29.268749
-460.610992	2.562000	792.877991	15.850625	-0.971250	-31.403749
-403.881012	-11.590000	835.700012	17.101875	-7.424375	-31.915625
-465.795990	-32.390999	800.564026	13.531875	-4.580625	-31.154375
-442.067017	-29.341000	866.749023	15.968750	-16.887501	-45.001251
-380.029999	-64.050003	867.664001	15.990625	-17.981251	-41.890625
-386.191010	10.370000	793.061035	18.178125	-16.524376	-37.358124
-383.385010	-53.192001	868.395996	25.410000	-14.218750	-34.278126
-363.377014	27.267000	830.027039	27.606251	-25.878124	-28.083124
-413.763000	-2.074000	810.445984	11.239375	-16.699375	-21.857500
-288.286011	33.733002	734.074036	25.405624	-31.355625	-40.298126
-311.039001	-49.715000	865.285034	14.533750	-27.488125	-14.350000
-265.593994	-6.832000	923.783997	-2.148125	-42.078751	-4.593750
-268.399994	-93.147003	987.468018	4.983125	-36.763126	-16.340626
-339.221008	13.908000	958.737000	-1.330000	-40.149376	-27.103125
-176.106995	21.410999	977.525024	-0.266875	-41.068127	-18.738125
-277.610992	-29.889999	986.309021	-7.831250	-26.355000	-16.572500
-188.734009	-16.958000	887.976990	-22.636250	-24.815001	-12.123125
-225.212006	-56.364002	855.708008	-21.118126	1.308125	6.960625
-199.653000	-78.385002	964.531982	-12.149375	-27.965000	-7.363125
-146.949005	-26.535000	1000.583008	-0.708750	-29.146250	-8.435000
-181.902008	-93.940002	990.945007	-4.764375	-28.249374	-7.831250
-152.012009	-198.067001	1101.416016	-21.380625	-32.011875	-11.357500
-160.979004	-124.928001	1016.565002	-16.336250	-28.730625	-21.612499
-2.867000	-233.874008	1145.275024	-7.691250	-37.764999	-24.666250
-131.943008	-141.154007	1075.125000	-1.636250	-24.276875	-15.045625
24.888000	-174.582001	1178.337036	-3.801875	-29.522499	-19.044374
-46.177002	-165.126999	1111.907959	2.196250	-1.513750	6.846875
-35.501999	-154.878998	1055.177979	-6.510000	-23.616249	13.055000
-38.917999	-121.756004	1008.085999	-3.521875	-41.033127	1.780625
8.662000	-96.684998	1153.083008	-13.055000	-56.284374	2.025625
-17.507000	-48.922001	1085.373047	-12.285000	-42.271252	13.601875
80.459000	-136.335007	1211.886963	-14.595000	-24.364374	14.280000
83.082001	-45.506001	1164.124023	-15.369375	-23.419374	21.997499
101.077003	-140.300003	1108.552979	-17.097500	-20.908125	25.270000
192.028000	-193.675003	1144.055054	-22.859375	-26.337500	23.432501
164.151001	-145.790009	1040.477051	-17.058125	-12.140625	29.671249
177.693008	-280.295013	1150.947998	-13.803125	-8.483125	27.006874
149.145004	-300.364014	907.130981	-35.770000	-25.501875	19.341875
184.037003	-222.650009	980.148010	-27.505625	-32.418751	11.593750
189.649002	-241.559998	1049.383057	2.397500	-9.843750	9.506875
299.876007	-247.598999	999.546021	17.727501	-2.401875	22.846251
179.279007	-205.936005	1073.843994	33.788124	10.491250	28.730625
185.988998	-172.630005	1009.428040	38.823750	15.426250	27.199375
227.895996	-117.181000	1088.728027	35.577499	4.383750	26.306875
159.270996	-71.370003	1059.692017	31.167500	15.806875	34.829376
197.457001	-84.667999	1115.933960	-7.573125	-6.365625	24.876249
114.802002	-71.613998	1104.893066	0.472500	9.716875	31.360001
207.156006	-151.279999	1106.417969	-6.934375	4.200000	25.003124
72.895004	-90.402000	1107.271973	-20.601875	-12.709375	31.784374
166.285995	-121.512001	1030.290039	-28.472500	-6.418125	38.972500
109.861000	-85.827003	1104.099976	4.711875	16.161249	36.373749
124.195999	-98.820000	1170.651001	16.235624	6.037500	34.181873
269.924988	-157.929001	1217.926025	-1.806875	31.228750	49.096249
-12.810000	-173.117996	1025.714966	-12.101250	44.904999	53.370625
122.975998	-249.367996	1155.279053	-17.184999	34.641251	26.407499
-7.930000	-368.867004	1157.657959	9.598750	37.191875	17.850000
139.018997	-114.131004	1020.286011	27.116249	29.924999	-12.556250
29.524000	-58.499001	909.754028	22.955626	53.488750	4.773125
-25.193001	-34.098999	982.832031	11.777500	59.740623	13.063750
-95.343002	3.355000	862.723022	-0.651875	51.086876	20.527500
-286.212006	-15.860001	948.733032	4.038125	63.612499	12.744375
-192.028000	5.917000	976.000000	5.188750	47.389999	3.871875
-251.137009	-6.405000	958.309998	8.050000	27.264999	-7.525000
-74.237000	-16.165001	993.140991	21.179375	35.739376	-10.110625
-230.945999	-63.500999	893.466980	10.390625	39.865002	-16.585625
-184.098007	-107.542999	878.765991	20.510000	44.677502	-11.147500
-320.067017	-76.372002	852.596985	23.834999	43.098125	-18.777500
-270.778992	-45.872002	813.312988	30.576876	34.580002	-23.091249
-379.541992	-14.030000	798.489990	40.941250	26.131874	-26.346251
-308.355011	-31.232000	820.999023	34.269375	21.376249	-22.049999
-331.412994	-25.925001	776.041992	28.568750	12.403125	-9.870000
-393.938019	-17.141001	784.887024	29.203125	10.128125	-18.764376
-345.869995	-7.869000	813.252014	30.078125	9.926875	-33.897499
-354.959015	29.585001	744.200012	50.408749	-5.893125	-42.174999
-279.868011	33.000999	746.945007	33.652500	-18.860624	-47.512501
-291.763000	38.003002	812.580994	27.505625	-32.812500	-26.241249
-308.050018	-43.554001	828.135986	33.494999	-19.849375	-22.500626
-335.317017	-60.389999	848.937012	14.813750	-34.046249	-27.496876
-289.018005	-58.926003	895.114014	-10.640000	-31.976875	-19.621876
-406.931000	-128.160995	916.403015	-15.767500	-24.110624	-44.051876
-215.025009	-58.865002	842.593018	-6.335000	-27.575624	-60.707500
-207.705002	-110.836998	898.713013	2.218125	-38.263748	-44.581249
-319.761993	-125.172005	870.104004	2.493750	-29.929375	-19.884375
-226.981003	-211.609009	917.317993	-8.570625	-45.373123	-23.607500
-213.622009	-108.092003	939.705017	-5.276250	-47.788124	-24.364374
-83.752998	-267.545990	1073.782959	2.765000	-33.166874	-28.227501
-238.266006	-127.978004	917.317993	5.438125	-32.935001	-41.356876
7.076000	-149.876999	1060.607056	-11.440625	-40.473125	-43.920624
-97.051003	-212.524002	1088.728027	-6.041875	-33.035625	-22.898750
-30.195000	-158.294998	978.562012	-3.438750	-34.404999	-7.660625
-36.904999	-174.216003	1113.494019	17.836876	-16.152500	-9.528750
44.834999	-182.451004	1076.223022	42.840000	-12.145000	-9.681875
7.198000	-126.941002	1075.857056	-15.649375	-19.512501	12.175625
-41.480000	-49.776001	958.492981	-5.013750	-28.433125	5.621875
44.225002	-131.516006	1076.588989	-3.206875	7.341250	-0.691250
21.289000	-72.223999	965.507996	-1.246875	-23.397499	-1.413125
38.186001	-50.935001	1123.558960	-6.273750	-31.154375	3.933125
117.973999	-161.040009	1190.171021	-20.050625	-17.819374	13.667500
65.453003	-169.641006	1068.232056	-24.823750	-20.107500	24.854376
54.229000	-156.160004	1148.568970	2.695000	-21.323750	13.072500
67.222000	-106.932999	1111.359009	-4.466875	-0.612500	20.505625
155.061996	-191.906006	1176.629028	-13.230000	-40.884377	22.653749
225.761002	-134.199997	1214.571045	-11.860625	-18.213125	19.446875
163.602005	-119.316002	1143.078979	-14.861875	-14.227500	31.666250
254.003998	-197.639999	1239.703003	0.861875	-8.846250	20.356874
223.138000	-218.257996	1193.037964	-11.348750	25.834375	42.831249
146.156006	-326.959991	995.703003	-22.526875	6.842500	63.411251
172.630005	-332.205994	976.854004	-0.892500	-6.755000	47.508125
78.933998	-264.557007	931.591980	4.711875	11.991875	55.956249
105.529999	-291.031006	984.967041	-0.262500	6.352500	50.596874
66.306999	-63.318001	1016.626038	-7.017500	-36.443748	32.558750
72.895004	-121.267998	1174.372070	-3.224375	-16.537500	61.718124
249.429001	-56.303001	1201.822021	18.248125	-14.039375	52.793125
279.380005	-165.188004	1270.691040	13.024375	2.060625	57.041248
-30.622000	50.630001	1012.783020	24.237499	-4.326875	17.823750
366.549011	-178.059006	1286.489990	-9.703750	-9.380000	28.030624
61.427002	139.994995	1108.431030	10.871875	12.761875	24.504375
235.277008	-72.041000	1094.583984	8.216250	61.298126	44.638126
112.239998	-38.796001	1045.540039	4.318125	39.235001	46.764374
114.619003	5.978000	956.053040	17.898125	41.680626	22.850624
1.342000	33.184002	1027.605957	8.846250	52.333752	36.723751
-143.777008	-88.328003	1011.380005	15.089375	56.363125	39.733749
-18.666000	-75.639999	1099.586060	12.740000	56.052502	22.579374
-150.242996	-9.333000	938.363037	10.893750	66.027496	17.526251
-105.042000	-67.649002	1048.773071	12.508125	70.769997	7.341250
-97.294998	-9.638000	950.989990	9.751875	77.135628	19.363750
-344.406006	17.080000	717.116028	20.238750	75.166878	9.008125
-179.279007	67.649002	736.819031	10.360000	33.101250	-0.691250
-328.606995	41.418999	697.901001	7.800625	41.667500	8.802500
-233.324997	15.799000	787.692993	16.607500	8.106875	-21.468124
-378.016998	0.122000	756.765991	30.524376	21.201250	-15.732500
-305.122009	-36.904999	832.040039	43.820000	11.672500	-28.918751
-386.373993	-69.174004	831.918030	35.336876	20.352501	-30.309999
-438.773010	36.600002	821.121033	28.656250	-4.672500	-36.981876
-367.158997	-15.921000	839.908997	24.972500	-7.988750	-39.921875
-376.431000	50.569000	851.926025	22.592501	1.430625	-37.725624
-442.250000	-23.729000	835.578003	20.212500	1.356250	-39.383751
-418.886993	-42.821999	935.801025	15.903125	-4.138750	-37.804375
-400.098999	-25.071001	875.350037	13.728750	-6.951875	-46.738125
-316.712006	-22.570000	831.734985	6.199375	-4.396875	-49.384998
-422.912994	20.862000	817.522034	3.653125	-5.040000	-36.176876
-363.316010	-1.159000	801.661987	8.281875	-2.288125	-36.955624
-374.601013	3.965000	770.674011	12.197500	-15.736875	-33.617500
-371.063019	-92.475998	833.382019	10.946250	-7.700000	-41.584373
-380.701019	-78.080002	810.140991	6.654375	-19.976250	-43.859375
-334.524017	-65.391998	892.734985	13.877500	-30.362499	-42.739376
-320.372009	-173.117996	928.846985	15.203125	-28.660625	-42.485626
-399.428009	-88.876999	861.502991	16.642500	-36.850624	-39.361874
-210.816010	-111.813004	969.656006	28.354376	-36.124374	-39.388126
-210.084000	-79.788002	1009.733032	32.278751	-26.359375	-28.608126
-243.268005	-28.609001	908.351013	15.964375	-39.112499	-24.233126
-187.331009	-41.053001	872.910034	-14.017500	-35.813751	-20.400625
-172.507996	-91.744003	945.500000	-16.126249	-32.816875	-22.260000
-144.082001	-86.070999	927.566040	-7.892500	-30.887501	-18.165001
-152.805008	-160.125000	866.078003	-10.587500	-23.441250	-15.618750
-157.136002	-121.939003	887.122986	-13.418125	-32.471249	-13.326250
-48.434002	-225.151001	1155.279053	1.417500	-21.420000	-23.165625
32.818001	-59.414001	1102.635986	-10.508750	-54.079376	-27.278126
20.069000	-215.085999	1165.832031	-18.528126	-14.980000	-6.794375
-22.875000	-182.085007	1037.854004	-15.365000	-8.680000	-9.629375
47.275002	-155.794006	1058.899048	0.415625	4.431875	-4.331250
-54.595001	-144.326004	996.739990	7.612500	6.514375	3.788750
-5.307000	-147.863998	1056.276001	-0.577500	-7.665000	-6.234375
19.947001	-162.869995	1043.282959	-21.866249	-25.235001	-4.895625
95.648003	-221.979004	1030.473022	-37.550625	-32.904373	10.421250
60.512001	-255.346008	1077.625977	-11.235000	-23.695000	17.959375
9.760000	-279.441010	1006.927002	6.803125	-14.713125	15.728125
34.282001	-251.747009	1157.291992	0.739375	1.868125	14.735000
75.212997	-230.763000	1034.193970	6.015625	-18.790625	15.356250
44.529999	-267.729004	1161.867065	6.575625	-29.378124	26.306875
90.524002	-253.638000	1087.325073	16.756250	-26.691875	32.493126
168.604004	-213.927002	1131.794067	11.895625	-19.744375	30.651251
225.944000	-248.757996	1137.467041	6.435625	-10.115000	51.441250
121.695000	-192.210999	1051.213013	8.666875	20.033125	48.768124
167.505997	-173.057007	1232.322021	-3.071250	3.040625	44.419376
186.721008	-246.135010	1030.167969	-18.318125	-10.338125	54.656876
147.863998	-126.575005	1142.164062	10.841250	-1.273125	39.278751
159.087997	-119.011002	969.046021	-11.348750	-7.013125	48.483749
114.436005	-72.223999	1037.671021	4.580625	3.898125	44.830624
163.113998	-92.720001	1045.967041	0.560000	22.426250	51.183125
92.780998	-153.354004	1056.520020	-2.060625	13.728750	48.540627
95.831001	-130.235001	1072.014038	1.115625	4.116875	42.625626
123.585999	-168.421005	1154.302979	0.533750	9.305625	28.555626
40.992001	-60.024002	1122.765991	-6.453125	-23.034374	27.619375
201.604996	-81.801003	1206.152954	-0.367500	-6.864375	10.933125
160.003006	54.167999	947.757019	-11.655000	-0.503125	33.320000
175.680008	3.538000	1247.145020	22.080626	43.776249	32.046875
-80.703003	-9.211000	969.656006	8.684375	32.274376	30.550625
184.464005	-76.799004	1227.625000	0.525000	28.700001	19.766251
-36.966000	-114.619003	972.889038	-7.039375	47.053123	63.166248
-113.826004	-231.007004	1069.879028	14.761250	40.486252	23.813126
93.757004	-44.285999	1002.840027	39.431873	35.573124	9.174375
-86.070999	-30.622000	1039.500977	40.398750	65.834999	21.835625
-73.321999	-27.267000	940.681030	37.944374	62.676250	17.193750
-298.838989	87.291000	869.189026	19.805626	68.954376	15.093750
-201.483002	57.218002	900.665039	-4.348750	57.365002	8.859375
-321.653015	82.411003	909.449036	-10.517500	52.101875	0.126875
-288.468994	52.216000	849.364014	-1.408750	57.150623	-3.644375
-335.256012	31.232000	831.674011	2.546250	35.988750	-7.393750
-430.782013	158.904999	775.859009	32.134377	24.552500	-16.887501
-310.856018	38.125000	668.804016	58.161251	-2.651250	-24.928749
-319.945007	52.094002	843.325012	42.660625	10.395000	-16.191875
-414.433990	65.148003	831.856995	26.915001	23.883125	-15.719375
-341.356018	31.476000	923.783997	21.188126	10.158750	-24.381874
-493.368011	28.670000	777.018005	21.949375	25.265625	-21.455000
-478.239990	142.557007	869.127991	4.344375	-7.542500	-30.918125
-464.576019	13.115000	863.333008	7.831250	6.855625	-16.305626
-443.653015	-16.348000	828.624023	9.585625	5.293750	-25.716249
-464.881012	24.827000	850.889038	18.466875	-13.440000	-40.201874
-405.772003	5.124000	827.953003	30.038750	-1.942500	-38.526249
-427.549011	35.624001	739.869019	30.034374	-10.241875	-45.115002
-453.291016	80.398003	746.213013	15.750000	-17.215626	-38.513126
-340.319000	68.259003	697.229980	4.221875	-30.047501	-38.959373
-330.925018	-6.588000	789.767029	4.138750	-31.626875	-46.497501
-125.111000	-15.433001	816.179993	4.213125	-63.201248	-46.287498
-326.227997	-40.199001	798.856018	9.738750	-36.224998	-45.285625
-201.788010	10.675000	809.226013	4.375000	-49.349998	-33.499374
-279.989990	-96.868004	777.505981	-6.151250	-49.096249	-16.721251
-267.912018	-86.742004	893.466980	11.615625	-53.143124	-31.408125
-115.045998	-276.574005	958.371033	-9.988125	-50.474377	-27.895000
-137.188995	-188.001999	967.155029	-22.924999	-63.459373	-25.077499
-140.666000	-259.067017	1020.957031	-3.368750	-39.226250	-28.122499
-93.085999	-201.910004	909.143982	-22.658125	-37.585625	-35.008751
-67.099998	-233.141998	1001.254028	-1.369375	-26.429375	-34.111874
-0.061000	-211.731003	1032.242065	-17.351250	-45.919998	-27.186251
-27.267000	-164.578003	1126.670044	-0.581875	-27.702499	1.054375
46.848000	-294.934998	878.522034	8.785000	-51.393124	12.678750
89.059998	-120.109001	1343.463989	3.587500	-57.640625	-20.986876
93.147003	-137.494003	1179.068970	-1.076250	-15.903125	-9.546250
15.860001	-151.645996	1005.645996	-6.234375	-9.708125	-14.463750
207.949005	-183.122009	1304.363037	-1.627500	-15.421875	-13.685000
154.268997	-174.399002	1117.031982	11.003125	12.665625	28.284374
106.201004	-212.889999	1133.501953	7.634375	22.238125	24.613750
25.498001	-176.839005	990.273987	-17.071251	4.943750	34.816250
-3.416000	-182.817001	998.143005	-9.108750	-4.156250	24.150000
-70.393997	-258.274017	1172.724976	-18.659374	7.826875	22.106874
11.651000	-250.770996	928.603027	-52.788750	-35.831249	6.798750
163.846008	-174.337997	1034.193970	-7.669375	-46.112499	-21.962500
274.134003	-77.897003	1090.924072	34.055000	-3.399375	-22.645000
162.016006	-62.098000	1229.760010	3.863125	-1.185625	-5.368125
143.960007	-117.913002	1154.425049	-13.225625	-26.670000	-2.948750
158.600006	-47.275002	1148.691040	-4.576250	13.702500	28.485624
84.119003	-222.650009	977.342041	1.413125	24.254999	53.904373
134.139008	-208.742004	1113.859985	25.606874	18.440624	44.695000
116.753998	31.415001	1221.586060	38.561249	-0.420000	44.406250
125.721001	-37.149002	1080.310059	7.822500	-4.366250	58.598751
144.875000	-45.932999	1234.151978	-21.161875	5.026875	47.166874
65.514000	-20.679001	1125.083984	-32.095001	-6.531875	37.581249
102.175003	-35.746002	1062.864014	-23.003750	-12.967500	19.621876
17.507000	90.036003	1041.574951	-7.761250	-20.011250	-14.783125
213.072998	45.018002	1260.931030	-43.855000	-33.031250	15.758750
188.490005	-211.609009	1057.922974	-13.510000	37.813126	46.724998
105.469002	-149.206009	1019.859009	-22.049999	42.564377	35.914375
-11.773000	-197.274002	977.768982	-12.376875	27.334999	13.146875
91.865997	-140.971008	1092.815063	-5.276250	42.231876	10.294375
-49.166000	-130.417999	967.093994	-7.831250	34.195000	27.295626
-34.770000	-211.304001	1049.139038	5.280625	32.926250	21.406876
-13.603000	-176.960999	1033.218018	5.530000	45.639999	24.556875
-64.293999	-164.456009	969.290039	12.639375	42.498749	18.869375
-119.621002	-126.331001	971.546997	16.603125	47.193127	13.846875
-186.477005	-141.520004	951.294983	18.226250	43.645000	15.951250
-210.266998	-145.057999	945.561035	22.824375	48.527500	27.501249
-215.574005	-51.728001	881.450012	20.750626	46.038124	30.253124
-351.420990	-95.586998	899.505981	20.006874	39.121250	24.613750
-264.312988	-10.431000	915.000000	14.078750	35.476875	8.032500
-260.165009	-31.171000	875.777039	0.949375	34.264999	6.470625
-341.843994	-33.062000	853.328979	16.506874	33.801250	-4.322500
-273.707001	94.245003	842.837036	19.057501	22.194374	-9.091250
-319.884003	61.000000	799.405029	24.171875	25.549999	2.200625
-278.953003	73.626999	832.710999	34.566875	30.620625	-4.886875
-352.274994	35.196999	877.790039	4.095000	24.985624	9.187500
-412.726013	-109.983002	919.392029	-5.040000	39.445000	0.350000
-376.065002	-44.591000	886.695984	-13.068125	14.218750	-15.898750
-439.078003	-100.345001	915.488037	-2.135000	23.358126	-20.081249
-369.964996	-104.309998	851.316040	6.973750	10.893750	-29.172501
-445.666016	-39.345001	739.320007	13.641250	-27.072500	-38.679375
-378.505005	-66.429001	842.348999	16.896250	5.153750	-24.399376
-404.613007	-42.761002	724.252991	8.614375	-7.665000	-14.665000
-529.236023	6.405000	735.416016	22.443750	-12.363750	-23.397499
-387.593994	-72.773003	811.910034	13.448750	-18.283125	-14.901250
-386.984009	-85.705002	804.528992	22.754375	-13.405000	-44.121876
-323.666016	-90.767998	820.450012	9.314375	-31.937500	-50.994999
-259.311005	-58.681999	819.840027	3.635625	-17.058125	-53.200001
-357.765015	-82.899002	825.635010	20.313126	-16.336250	-55.037498
-173.972000	-116.144005	863.455017	0.669375	-28.931875	-43.750000
-429.744995	-227.408005	918.843018	-1.155000	-24.395000	-25.698750
-371.734009	-188.429001	628.239014	7.778750	-26.630625	-27.737499
-148.169006	-200.141006	1000.765991	10.281250	-46.996250	-38.972500
-113.399002	-175.985001	795.074036	6.431250	-32.628750	-26.582500
-220.697998	-203.191010	1014.247009	-0.363125	-21.682501	-28.651875
-175.070007	-152.927002	908.046021	-5.420625	-29.308125	-31.075624
-128.587997	-290.847992	1042.001953	-17.184999	-45.578751	-33.389999
-109.983002	-169.824005	1050.480957	-25.401251	-53.571877	-27.518749
-49.410000	-320.554993	1041.941040	-22.693125	-29.561874	0.835625
-166.591003	-333.548004	1087.385986	-27.794374	-30.638124	-12.446875
-44.774002	-275.720001	977.830017	-29.111250	-45.438751	-18.195625
56.913002	-402.966003	1075.979004	-15.308125	-42.030624	-9.826250
-35.868000	-366.670990	1038.159058	-7.476875	-28.966875	-12.945625
76.677002	-405.222992	1128.865967	5.110000	-17.062500	2.765000
-26.901001	-337.269012	1023.397034	8.225000	-13.597500	4.423125
93.452003	-324.032013	1069.329956	10.867500	-31.832500	-1.925000
77.958000	-255.406998	1046.333008	10.259375	-47.599998	11.484375
59.048000	-236.740997	1082.445068	7.945000	-30.913750	6.002500
154.451996	-191.906006	1102.941040	22.885626	-18.291876	4.996250
128.404999	-147.253998	1009.549988	27.129375	-23.786875	26.468750
198.067001	-249.673004	1117.641968	33.197498	-1.417500	28.043751
134.078003	-137.188995	1017.663025	27.334999	3.622500	23.817499
211.792007	-162.320999	1137.467041	16.926874	-20.256250	22.863750
130.540009	-113.277000	1056.398071	2.870000	-28.275625	21.319374
228.201004	-119.499001	1105.259033	-5.061875	-38.044998	19.219376
257.175995	-187.941010	1110.016968	-2.130625	-13.566875	36.579376
207.400009	-137.798996	1014.064026	1.395625	-5.901875	38.622501
256.078003	-193.553009	1096.474976	1.207500	4.641875	46.033749
203.923004	-176.900009	1008.268982	-2.086875	-4.676875	48.216873
223.565002	-150.669998	1048.162964	6.072500	-2.922500	38.600624
265.472015	-178.669006	1126.182007	-1.535625	-0.673750	35.608124
208.010010	-72.285004	1064.816040	2.961875	-2.441250	35.997501
194.102005	-134.688004	1036.451050	-0.061250	9.240000	47.044376
126.453003	-102.723999	1094.218018	6.636875	12.075000	39.116875
194.285004	-131.759995	1128.561035	4.501875	-3.373125	35.227501
246.501007	-123.403000	1117.825073	-7.612500	8.010625	33.941250
