AccX[mg]	AccY[mg]	AccZ[mg]	GyrX[dps]	GyrY[dps]	GyrZ[dps]	
183.000000	-58.376999	936.777039	0.883750	-2.235625	-3.088750
186.598999	-35.563000	983.564026	0.883750	-2.235625	0.000000
203.251999	-36.600002	1001.254028	-0.188125	-15.837500	-26.254375
228.079010	-29.097000	979.843018	-5.293750	-33.171249	-32.733749
227.895996	-25.559000	973.377014	-9.187500	-19.923750	-14.100625
230.518997	-90.889999	960.932983	-7.000000	-8.605625	10.688125
243.512009	-41.418999	996.557007	10.123750	24.885000	28.131250
243.938995	-47.458000	973.682007	-5.394375	35.581875	9.550625
196.664001	-40.809002	991.005981	-0.971250	17.968124	-5.210625
161.650009	-33.977001	1001.376038	-0.682500	3.784375	-12.516875
180.621002	-36.966000	1000.522034	-0.293125	-4.081875	-11.816875
276.147003	-362.096008	919.880005	-22.876875	-3.010000	-8.876875
205.753006	-384.726990	914.512024	-32.208752	13.138125	20.636875
148.656998	109.556000	789.462036	71.172501	33.569374	43.439377
188.429001	267.240997	381.554993	92.548752	72.471878	22.163750
8.845000	-35.685001	379.175995	-29.356251	49.520626	-3.377500
157.136002	11.651000	1001.864014	-51.673126	-36.421875	-10.723125
183.365997	-100.894005	595.359985	-14.840000	-14.971250	4.029375
242.779999	-198.128006	993.080017	0.599375	56.017502	-45.351250
28.853001	170.800003	950.562988	14.004375	72.253128	-74.654999
82.899002	-81.496002	1015.467041	35.630001	126.056877	-51.983749
-71.125999	55.265999	1162.354980	20.545000	39.466873	-75.473122
-366.000000	197.578995	893.223022	30.550625	-6.453125	-71.767502
-39.406002	65.819000	991.067017	-1.277500	-17.355625	-19.670000
147.376007	69.845001	910.729980	-32.847500	-59.946251	-2.205000
24.034000	79.605003	1279.170044	-7.498750	-89.070625	-0.686875
125.538002	113.459999	1037.182983	28.424376	34.256248	-25.869375
-69.112999	77.470001	945.866028	-8.933750	35.021873	-11.300625
-25.498001	90.279999	1536.833984	8.960000	77.450623	-2.576875
23.241001	237.716995	1141.005005	-0.778750	8.286250	9.821875
17.019001	29.829000	1060.911987	-28.280001	-95.160622	33.416248
10.675000	32.146999	1185.352051	-21.883751	-41.369999	33.363750
206.240997	58.804001	1172.847046	-8.929375	13.181875	19.976250
80.641998	95.343002	1038.890991	-1.356250	4.799375	18.016251
231.921997	187.514008	1046.577026	56.244999	-50.811249	20.610624
283.772003	154.695999	534.726013	-30.808750	38.136875	-3.631250
250.466003	153.598007	959.346985	13.300000	3.263750	5.818750
106.017998	195.932007	758.108032	5.827500	10.972500	22.850624
80.093002	144.020996	801.418030	5.508125	9.165625	25.173750
-59.414001	58.011002	932.140991	7.275625	39.134377	26.862499
-97.294998	92.170998	709.369019	7.065625	-42.192501	6.571250
-23.180000	71.065002	1046.638062	29.859375	-59.863125	-14.048125
-91.439003	5.002000	966.239990	6.934375	3.906875	4.440625
-177.205002	-12.688000	1012.721985	-16.314375	14.122500	-4.803750
-89.364998	-115.960999	1147.287964	-10.880625	-44.572498	-6.860000
51.605999	-109.128998	1105.747070	-26.245625	20.724375	-46.506248
-71.980003	-129.686005	1061.583008	-15.242500	38.023125	-39.318127
-68.259003	-215.268997	1094.096069	16.747499	-4.886875	-33.451248
-86.986000	-104.493004	1251.171021	-0.249375	-25.698750	-20.326250
-32.390999	-113.764999	1013.942017	-40.954376	13.352500	-24.202499
4.697000	-205.692001	952.575989	-34.829376	-3.386250	-21.568750
58.621002	-82.594002	1030.167969	-20.151251	-28.437500	-13.580000
99.125000	-90.219002	982.710022	-7.284375	-37.992500	-6.335000
159.942001	-103.151001	1120.447998	14.980000	-16.034374	0.166250
161.283997	-64.903999	922.015015	0.533750	-10.784375	2.441250
135.725006	23.180000	1049.870972	3.058125	21.476875	-1.334375
121.267998	-24.888000	1072.197021	-11.816875	-14.730625	6.370000
130.723007	-32.025002	1075.613037	-5.328750	10.425625	17.246250
39.650002	-6.832000	1045.661987	-8.382500	34.321877	31.272499
51.118000	-33.244999	981.489990	-3.333750	4.440625	49.074375
66.978004	-44.591000	1019.859009	7.345625	9.957500	51.695000
205.692001	-42.456001	1127.645996	3.355625	-9.878750	43.986252
209.779007	-23.851000	1012.783020	4.746875	-5.950000	28.826876
174.094009	21.594000	1039.744995	-0.966875	-9.725625	6.510000
108.702003	16.409000	1023.092041	-15.426250	25.278749	18.090626
99.979004	-39.101002	1008.085999	-3.740625	43.351875	29.347500
80.641998	-26.108000	1034.560059	9.550625	65.804375	33.529999
36.478001	-9.516000	1023.763000	8.898750	52.469376	27.278126
-18.726999	1.708000	1026.264038	-5.613125	62.470627	12.573750
-103.028999	27.023001	970.083008	-8.356250	19.403126	-2.786875
-58.560001	-74.359001	928.725037	-28.848749	-15.225000	-22.990625
7.991000	-34.221001	981.184998	-25.191250	-11.926250	-14.087500
-64.111000	-62.037003	963.921997	-9.008125	13.234375	1.561875
-40.260002	-94.672005	1030.229004	7.813750	-21.555626	-9.848125
-27.205999	-111.630005	994.544006	8.120000	6.523125	0.883750
-116.693001	-69.905998	996.739990	13.930000	-2.170000	-12.547500
-82.654999	-49.471001	1028.216064	18.357500	-22.076250	-30.091249
-23.668001	-61.549000	990.945007	17.841249	-25.663750	-44.953125
123.037003	-63.806000	1160.829956	9.301250	-18.808125	-36.452499
95.343002	-43.859001	1029.497070	1.640625	0.564375	-13.488125
84.119003	-25.193001	996.496033	1.920625	22.548750	7.713125
31.415001	-42.821999	946.963989	3.123750	42.017502	22.977501
-60.878002	-15.433001	1008.513000	1.955625	21.673750	15.299375
-108.335999	-34.526001	976.609985	-0.485625	-36.356251	6.361250
-75.762001	-35.990002	1082.261963	9.174375	-48.505627	6.286875
-19.032000	-37.088001	1027.057007	11.418750	-6.785625	-2.275000
-47.153000	-73.321999	984.479004	3.351250	15.159375	-13.759375
-12.749001	-23.607000	930.067017	0.866250	-4.445000	-25.112499
-37.881001	-39.894001	975.877991	0.210000	-24.819374	-30.463125
7.930000	-26.474001	964.348999	-4.086250	-22.448126	-33.044376
-11.834001	-6.527000	964.531982	1.868125	-27.492500	-41.334999
35.990002	-21.472000	1046.454956	20.496876	-20.444374	-51.458752
47.275002	22.570000	1153.265991	-8.102500	-48.912498	-11.130000
295.850006	-225.822006	137.067001	-26.928125	-107.795624	4.830000
99.247002	-4.819000	1032.729980	-34.864376	-33.166874	12.796875
199.897003	-72.773003	929.700989	-32.703125	-1.465625	7.332500
196.419998	-61.732002	1069.573975	-21.503124	17.696875	0.735000
247.843002	-153.110001	981.673035	-19.530001	38.823750	13.177500
171.044006	-154.208008	1090.557983	-17.955000	52.136875	39.488750
-4.636000	-67.649002	1035.963013	-19.158125	5.285000	27.015625
71.858002	-85.643997	1000.156006	-7.590625	17.871876	7.061250
122.244003	-150.975006	974.231018	-2.016875	21.336876	12.446875
259.981995	-154.818008	760.731018	20.860001	44.476250	27.120625
-202.459000	-76.127998	1061.094971	12.149375	35.621250	19.661249
-33.062000	-67.282997	894.565002	11.230625	35.783127	-14.021875
-35.746002	-151.707001	587.369019	20.798750	38.670624	-35.376251
-27.755001	14.884000	942.450012	24.863125	-4.186875	-31.968124
138.835999	8.479000	1034.560059	19.083750	-21.245001	-9.305625
180.011002	17.507000	1022.421021	6.348125	14.717500	9.537500
-128.587997	48.190002	952.880981	6.011250	-23.524376	-3.600625
112.789001	66.063004	1011.867981	8.168125	-34.553749	-13.855625
15.982000	76.737999	1008.757019	8.820000	-0.113750	-13.313125
44.529999	37.271000	976.000000	22.889999	-0.888125	-19.486250
-16.836000	55.449001	1052.005981	31.998751	-4.414375	-35.879375
77.348000	63.379002	1045.479004	19.053125	12.285000	-32.313751
-14.884000	-15.738000	1030.534058	14.765625	8.933750	-29.330000
33.549999	-28.365000	1094.218018	13.890625	-6.899375	-33.210625
12.688000	-43.675999	1064.083984	9.305625	7.035000	-29.216249
-43.980999	-24.705000	937.814026	17.399376	2.511250	-42.774376
34.403999	8.662000	1042.612061	5.560625	-3.920000	-32.418751
23.485001	-19.764000	1002.351990	5.748750	6.107500	-19.363750
4.636000	-9.272000	1034.316040	2.493750	21.043751	-10.723125
3.416000	28.121000	1041.818970	9.261875	8.194375	-11.011875
34.526001	71.125999	1042.734009	-0.350000	10.823750	-0.052500
-45.262001	67.587997	976.244019	-7.962500	16.611876	9.126250
-65.879997	92.903000	986.065002	-6.846875	7.240625	11.738125
-54.778000	90.402000	997.716003	-10.644375	2.870000	16.690624
-42.212002	62.159000	1013.332031	-0.214375	0.087500	9.760625
-25.010000	73.688004	1018.028992	4.554375	-2.200625	1.487500
-1.281000	36.904999	1045.174072	7.433125	-5.171250	-8.365000
11.590000	78.873001	991.311035	-7.284375	-7.595000	-2.546250
16.775000	51.910999	1037.122070	-10.963750	-3.898125	6.536250
-16.469999	53.313999	987.223999	-13.597500	16.979376	17.198126
-74.724998	23.912001	968.436035	-8.658125	17.198126	17.360001
-65.209000	10.370000	1017.236023	-5.018125	9.025625	15.421875
-79.422005	21.106001	985.882019	-10.053750	12.005000	14.590625
-103.395004	19.642000	975.572998	-6.531875	3.644375	8.001875
-78.507004	7.015000	1019.676025	-9.038750	-4.628750	1.938125
-116.083000	44.713001	976.793030	-7.433125	-9.699375	-4.130000
-76.311005	45.201000	997.655029	6.776875	-1.763125	-5.140625
-47.945999	53.131001	1033.156982	8.544375	-10.508750	-6.960625
-21.837999	58.255001	1027.728027	3.653125	-3.377500	-3.333750
-17.507000	45.139999	950.014038	-6.448750	6.724375	3.368750
-48.434002	7.991000	943.121033	-10.320625	1.732500	10.745000
-38.247002	11.285000	983.137024	-1.190000	4.939375	10.893750
-102.601997	49.959000	954.040039	5.626250	5.696250	14.616875
-71.858002	12.749001	989.237000	8.968750	-1.894375	10.670625
-37.027000	35.806999	1015.772034	6.899375	-26.521250	7.271250
0.610000	64.660004	1055.848999	7.301875	-27.934376	2.371250
-6.405000	111.751999	1059.997070	11.615625	-44.747501	-1.942500
60.938999	108.335999	1009.184021	9.314375	-35.240623	-0.612500
74.419998	73.931999	1052.494019	5.936875	-19.403126	-4.405625
115.778000	87.230003	1039.500977	7.183750	-18.694374	-6.168750
138.897003	52.338001	1020.286011	8.855000	-7.450625	-4.501875
163.175003	104.981003	1042.916992	5.853750	22.618750	-3.263750
91.195000	107.237999	965.752014	6.702500	14.288750	-2.909375
158.050995	139.811996	1051.945068	10.526250	8.890000	-6.702500
90.829002	157.380005	1060.607056	4.226250	17.613750	-10.031875
137.738007	185.928009	1079.089966	4.786250	-13.457500	-16.078125
110.471001	154.574005	1126.426025	1.859375	8.688750	-10.215625
93.330002	58.072002	987.712036	2.791250	-8.185625	-8.960000
65.696999	30.439001	959.103027	-4.165000	-33.691875	-6.663125
154.208008	112.544998	937.387024	-3.565625	-35.940624	-6.864375
159.149002	85.339005	986.674988	-5.149375	-9.336250	-2.747500
143.227997	40.504002	987.955994	-14.301875	22.238125	3.500000
104.493004	32.025002	938.302002	-10.504375	11.720625	3.058125
140.848999	22.387001	967.338013	-0.056875	5.709375	0.161875
86.498001	96.501999	1006.439026	-0.603750	5.862500	-9.638125
91.195000	82.106003	1043.282959	-5.127500	6.553750	-12.573750
83.875000	145.423996	1016.199036	-8.286250	19.236876	-8.881250
66.489998	74.969002	1006.927002	-13.409375	22.575001	3.648750
35.380001	69.479004	1044.990967	9.909375	16.520000	-7.936250
52.704002	145.912003	992.165039	22.863750	7.000000	-12.197500
23.912001	106.689003	980.575012	10.583125	2.756250	-4.729375
32.269001	75.274002	956.663025	4.252500	2.165625	-2.664375
46.360001	25.254000	954.406006	1.684375	-7.070000	0.630000
6.649000	-141.520004	961.970032	8.780625	-6.461875	4.541250
-0.061000	-250.710007	964.837036	12.862500	-16.279375	31.066875
94.183998	-209.413010	980.757996	26.691875	-22.391251	23.625000
62.830002	-70.150002	998.509033	33.490623	-20.965000	29.968750
105.408005	-18.849001	1025.898071	23.410625	-0.332500	40.254375
161.650009	26.962000	1075.490967	4.991875	9.156875	42.490002
200.628998	86.742004	1058.593994	-10.688125	-4.655000	48.260624
307.806000	54.778000	1132.648071	-8.968750	4.458125	59.456249
177.083008	116.632004	1063.046997	-3.482500	18.313749	55.566875
218.867996	173.179001	1224.208984	-22.264376	18.064375	47.652500
318.847015	-72.651001	949.892029	-47.547501	39.396873	60.226250
197.822998	-126.819000	1069.329956	-31.836876	31.031876	67.510628
244.122009	-5.612000	951.905029	-7.030625	34.575626	62.728748
147.009995	239.363998	835.882996	20.842501	56.498749	51.388748
198.188995	280.661011	788.486023	5.306875	8.478750	62.986874
73.321999	523.013977	1015.101013	16.379999	-15.141875	43.680000
-52.582001	474.092010	881.999023	3.456250	-33.328751	55.798752
117.120003	334.279999	1036.755981	-17.412500	-27.960625	47.438126
-16.042999	355.813019	959.286011	-10.075625	-22.693125	24.027500
46.970001	338.489014	1076.223022	5.687500	-28.065624	-9.795625
132.919006	158.904999	998.936035	-21.975624	1.990625	8.986250
210.938004	120.474998	1114.775024	-6.908125	-17.495625	1.925000
124.013000	26.108000	990.762024	-0.931875	15.382500	-2.143750
114.619003	-11.651000	1151.375000	3.430000	-12.866875	-16.165625
145.423996	113.947998	1312.902954	1.452500	-11.563125	-20.584375
155.854996	124.440002	1234.151978	-25.567499	-5.726875	-14.113750
201.788010	260.835999	1445.151001	-18.930626	6.216875	-6.527500
103.821999	154.818008	1370.060059	-17.368750	54.923752	-13.024375
58.072002	240.035004	1272.947998	-2.047500	33.455624	-27.181875
65.209000	70.760002	1257.270996	-22.194374	76.151253	-16.441250
91.134003	-6.344000	1264.224976	-2.506875	67.794998	-5.906250
28.548000	-96.989998	1120.692017	8.890000	80.259377	-14.625625
83.997002	-57.035000	1046.577026	21.778749	68.547501	-39.685623
2.806000	-145.973007	944.585022	5.346250	85.780624	-21.651875
-106.262001	-133.834000	824.171021	-3.185000	69.168747	-15.238125
-172.264008	-134.322006	754.875000	1.955625	66.806252	-17.268126
-91.561005	-109.495003	780.251038	11.239375	47.385624	-19.512501
-278.037994	-54.716999	674.233032	18.720625	41.426876	-13.470625
-303.414001	29.585001	597.494995	5.184375	34.628124	-9.743125
-345.687012	-61.366001	534.237976	9.778125	31.416876	-10.885000
-378.444000	19.459000	624.762024	0.341250	20.960625	-20.912500
-386.434998	61.122002	748.958008	12.180000	18.414375	-15.456875
-418.216003	-29.524000	603.838989	10.241875	15.513750	-9.060625
-392.657013	36.660999	613.111023	-3.294375	-1.360625	-10.040625
-294.691010	16.592001	679.845032	-2.476250	-3.841250	-14.826875
-275.537018	80.520004	545.035034	-3.071250	-14.293125	-14.126875
-168.481995	96.624001	577.669983	1.592500	-21.752501	-14.144375
-337.451996	80.641998	475.251007	11.221875	-27.702499	-3.049375
-245.891006	203.313004	522.281982	27.391874	-86.800003	-22.299376
-39.833000	182.328995	832.040039	-6.339375	-76.321877	5.407500
-117.973999	-101.503998	857.354980	-11.755625	-106.294998	0.713125
142.740005	10.553000	985.820984	7.275625	-107.852501	-50.824375
32.085999	-36.355999	1115.629028	14.533750	-91.564377	-51.213749
267.972992	-83.447998	907.252991	13.566875	-93.747498	-36.019375
268.522003	217.098999	1383.846069	15.369375	-107.625000	-38.425625
242.719009	-51.423000	1177.360962	-1.771875	-45.373123	-1.478750
188.917007	-35.868000	1281.854004	-1.281875	-21.236250	-4.217500
144.570007	-6.222000	1363.593994	0.608125	-32.103748	-26.473125
155.306000	-0.671000	1433.805054	-2.139375	5.425000	-27.895000
80.703003	11.468000	1294.420044	-21.070000	-3.263750	-21.656250
97.844002	-102.906998	1254.708984	-44.869999	-13.807500	-21.774376
160.063995	-131.210999	1157.536011	-39.860626	-17.237499	-32.825626
179.645004	-155.367004	1028.399048	-20.833750	-16.419374	-18.698750
195.322006	-165.005005	1103.368042	-1.421875	19.963125	-8.723750
151.828995	-160.247009	1026.264038	11.746875	25.366249	-6.807500
134.688004	-204.716003	977.220032	12.621875	16.209375	0.205625
166.529999	-242.169998	927.627014	13.199375	15.316875	6.090000
211.365005	-202.703003	988.200012	10.084375	15.820000	7.590625
205.020996	-168.908997	1072.928955	-5.538750	30.327499	25.208750
130.966995	-238.205002	947.085999	-2.283750	32.930626	38.841251
35.257999	-202.214996	1028.643066	3.416875	22.741249	23.078125
185.318008	-47.214001	1114.409058	-4.515000	9.848125	25.379375
110.836998	-138.348007	942.572021	-1.570625	13.063750	56.975624
243.695007	-167.872009	1124.229980	-3.871875	-7.879375	64.540001
188.063004	17.934000	1041.270020	2.126250	22.194374	57.168125
39.589001	21.410999	916.708008	2.848125	33.245625	58.782501
161.040009	178.363998	952.210022	-1.159375	21.770000	26.433750
71.796997	238.998001	952.332031	4.007500	-12.306875	34.816250
39.528000	292.373016	971.913025	-6.733125	-38.346874	39.370625
62.769001	298.106995	914.817017	-14.030625	-31.806250	37.760624
4.819000	299.876007	1048.285034	-19.630625	-11.978750	43.115623
73.139000	148.169006	1030.290039	-14.529375	-9.428125	29.754375
34.221001	285.601990	1117.458984	2.375625	-1.566250	10.889375
99.125000	172.507996	1094.035034	6.514375	-14.389375	9.975000
108.153000	177.083008	1023.397034	3.237500	-6.020000	-0.993125
99.552002	82.228004	1153.754028	0.857500	7.743750	7.520625
19.642000	16.104000	1152.900024	-10.268125	-21.835625	-0.411250
185.318008	13.298000	1280.084961	-11.781875	-49.717499	-11.501875
124.440002	-36.234001	1307.962036	-31.639999	-1.710625	12.906250
25.193001	-103.578003	1207.860962	-6.549375	-21.634375	1.876875
255.346008	30.439001	1338.156982	20.593124	-30.108749	-14.616875
223.382004	95.953003	1269.471069	11.226250	24.513124	2.375625
13.603000	125.293999	1274.961060	16.209375	46.480000	-18.440624
207.095001	115.229004	1283.989014	-18.974375	41.868752	-8.833125
85.034004	-28.792000	1259.711060	-29.920626	49.756874	37.821877
260.470001	-177.753998	1251.415039	-11.283125	68.289375	25.729376
17.750999	-181.169998	1079.578003	5.044375	74.186874	27.829374
-20.679001	-189.649002	872.666016	23.222500	94.885002	-6.483750
-72.346001	8.540000	784.765015	16.292500	70.376251	-11.151875
116.693001	-228.872009	831.429993	18.322500	81.983124	13.593125
-174.399002	-198.494003	528.320984	-0.905625	92.338753	12.289375
-305.915009	-98.881004	724.009033	8.448125	66.486877	-17.552500
-143.533005	-129.320007	618.356995	19.376875	39.703125	-15.500625
-442.006012	5.490000	507.398010	6.606250	33.468750	-6.063750
-329.705017	-5.002000	489.403015	15.041250	9.966250	8.828750
-381.250000	-23.302000	649.955017	12.206250	2.935625	-8.238125
-331.778992	16.653000	653.005005	13.523125	2.191875	-24.850000
-352.335999	72.651001	687.897034	3.653125	-3.745000	-20.610624
-293.166016	79.483002	681.431030	6.111875	-13.256250	-17.390625
-295.239990	142.496002	674.233032	0.310625	-26.635000	-2.629375
-343.552002	68.990997	753.716003	2.940000	-32.733749	-0.240625
-250.710007	28.731001	793.793030	16.305626	-41.142502	1.846250
-197.457001	60.146000	754.020996	29.548750	-48.260624	-15.925000
-32.085999	80.581001	863.820984	35.345627	-53.790627	-28.236250
-212.462997	196.359009	768.356018	5.831875	-48.133751	-23.130625
-62.952000	-48.983002	837.835022	-4.532500	-47.136250	-16.830626
-164.761002	115.595001	1038.463989	-11.462500	-67.235001	-14.949375
-68.747002	-122.305000	1074.270996	-3.548125	-62.033127	-23.638124
-104.554001	-101.687004	1000.583008	-16.848125	-54.652500	-17.631250
-73.444000	-90.524002	1202.797974	-14.437500	-71.959999	-31.491249
146.949005	-200.324005	1132.343018	-18.620001	-55.361252	-17.399376
-80.093002	-62.220001	1017.419006	-30.152500	-40.652500	-20.085625
50.202999	-113.094002	1065.303955	-36.330002	-78.684372	-42.096249
175.740997	-151.828995	1327.786987	5.468750	12.215000	-12.998125
218.380005	-213.134003	1250.500000	-16.397499	-15.216250	-1.465625
105.286003	-71.736000	1227.015015	-24.290001	-29.627501	-2.913750
141.459000	-149.694000	1211.703979	-12.836250	-23.821875	-13.378750
151.585007	-88.450005	1158.207031	10.548125	-23.568125	-31.005625
193.492004	-129.380997	1234.030029	18.125626	-9.174375	-27.965000
171.104996	-113.094002	1196.393066	4.156250	3.071250	-24.128124
153.964005	-116.265999	1112.213013	5.070625	7.551250	-19.105625
190.869003	-135.785995	1066.524048	4.173750	4.685625	-4.917500
178.669006	-207.766006	1009.489014	5.175625	14.730625	0.354375
186.843002	-230.641006	1030.594971	14.196875	19.770624	6.960625
152.500000	-242.719009	951.356018	15.802500	37.366875	7.122500
115.107002	-222.100998	958.859009	24.644375	29.981874	7.083125
112.606003	-245.158997	1004.914001	15.391250	47.534374	13.076875
136.212997	-209.901001	992.408997	0.433125	32.169376	17.963751
38.674000	-175.740997	1043.161011	-1.019375	-10.027500	22.448126
-13.603000	-141.459000	1005.341003	-5.718125	6.098750	1.500625
178.181000	-78.690002	983.137024	-10.141250	-40.424999	-1.207500
241.194000	-151.341003	1023.275024	-18.830000	-35.988750	32.309376
219.294998	-134.444000	1016.320984	22.216249	36.211876	50.273125
156.770004	-9.760000	1011.624023	19.320000	56.223125	52.145626
199.470001	26.535000	1043.099976	1.610000	26.236876	46.055626
120.658005	141.824997	1024.312012	-4.335625	-7.739375	23.839375
30.561001	177.693008	1027.911011	-34.374374	-28.227501	27.728750
118.096001	206.302002	1035.597046	-36.443748	-15.098125	19.040001
94.976997	126.270004	987.223999	-17.648750	-0.726250	16.734375
-2.684000	303.109009	1067.011963	3.228750	11.646250	6.558125
41.723999	198.677002	1080.187988	20.483749	-15.671250	15.426250
24.948999	158.722000	1070.671997	4.160625	-1.058750	23.681875
82.472000	42.639000	1122.583008	-7.695625	-0.560000	10.666250
-2.867000	67.039001	1122.888062	-9.830625	-15.680000	9.961875
84.729004	33.549999	1235.799072	-8.299375	-20.405001	0.848750
105.224998	-33.672001	1331.141968	-18.353125	-18.773125	10.806250
-38.674000	-14.579000	1298.323975	-7.857500	-16.458750	6.374375
182.085007	-125.538002	1525.365967	-0.778750	2.296875	-1.382500
132.248001	-122.182999	1368.962036	3.088750	31.276875	16.690624
-39.040001	-93.940002	1377.562988	30.108749	53.475624	17.206875
223.503998	-122.610001	1395.497070	21.323750	29.225000	11.738125
-52.764999	-51.789001	1127.951050	-21.332500	102.869377	22.640625
-2.989000	-1.281000	1103.062988	-12.565000	66.994377	-2.100000
7.686000	-20.740000	976.609985	-1.015000	96.941254	-10.867500
-151.889999	1.281000	827.708984	-0.345625	98.870628	-10.946250
-62.586002	45.383999	857.416016	10.727500	63.560001	-0.240625
3.233000	-189.222000	752.312988	18.462500	67.571877	16.498125
-186.904007	-134.871002	682.406982	21.966875	76.120628	5.853750
-60.084999	-135.175995	656.299011	34.912498	77.918747	-2.305625
-251.747009	-242.658005	566.263000	13.759375	62.982498	11.221875
-402.295013	-98.271004	514.718018	2.288125	85.045624	-2.961875
-522.830994	14.945000	445.239014	-12.442500	33.740002	-1.990625
-581.513000	33.977001	468.662994	-7.529375	24.762501	0.293125
-502.152008	35.990002	416.507996	-9.800000	8.710625	11.729375
-570.166992	43.249001	502.334991	4.725000	-12.573750	1.833125
-377.285004	92.780998	484.584015	15.623125	-22.850624	-16.804375
-360.265991	113.642998	530.578003	24.613750	-30.961876	-16.139376
-330.619995	-11.224000	544.364014	27.895000	-43.693127	-0.056875
-231.007004	58.621002	524.356018	6.160000	-44.826248	0.533750
-422.303009	136.518005	582.671997	9.244375	-51.270626	3.071250
-340.380005	17.934000	787.083008	13.125000	-100.909378	-29.693125
-184.220001	-19.580999	881.205994	-5.175625	-81.641876	-35.577499
-127.246002	-95.160004	1054.263062	-6.313125	-114.353752	-26.350624
33.000999	-98.820000	1204.261963	-43.780624	-114.056252	-31.425625
102.297005	-155.001007	1104.405029	-28.503124	-132.229996	-30.436874
68.320000	-236.192001	1270.630005	-21.218750	-62.728748	-29.881250
147.498001	-223.992004	1431.120972	-5.814375	-16.021250	-33.621876
-177.876007	-242.535995	1075.186035	-13.291250	-45.093124	-10.084375
-69.417999	-244.122009	1374.025024	-10.434375	-68.184372	-14.083125
23.424000	-245.830002	1273.680054	8.321250	-33.963123	-31.486876
-23.485001	-225.639008	1513.104980	8.360625	-7.245000	-28.695625
161.772003	-124.745003	1322.846069	-13.243125	-23.419374	-27.142500
88.999001	-127.246002	1183.156006	-1.658125	8.815625	-7.135625
37.088001	-158.844009	1157.841064	0.931875	34.973751	-5.359375
89.853004	-195.016998	1053.896973	-13.693750	19.035625	-4.204375
54.534000	-208.619995	939.949036	-10.679375	5.901875	-1.588125
37.453999	-256.932007	907.557983	-5.630625	4.418750	-5.311250
106.079002	-356.789001	957.882996	-9.642500	5.306875	-5.311250
76.982002	-358.070007	1039.500977	-1.281875	8.513750	-5.976250
219.539001	-425.475006	1067.927002	-2.327500	20.658751	17.718750
-16.958000	-277.367004	930.677002	15.242500	21.743750	14.402500
204.410995	-365.084991	1007.476013	0.643125	0.603750	23.778126
75.639999	-231.617004	1152.350952	7.223125	4.799375	23.327499
22.631001	-135.115005	1057.984009	21.017500	34.155624	14.336875
262.848999	-190.380997	1030.107056	3.941875	4.733750	22.360624
94.793999	-52.338001	1018.517029	-3.027500	-19.849375	20.317499
150.487000	-37.698002	935.191040	-5.066250	10.749375	25.536875
111.203003	137.921005	834.296997	-5.888750	13.523125	14.280000
125.172005	16.226000	981.916992	14.231875	42.030624	21.546875
-140.300003	281.575989	913.963013	15.207500	-7.048125	34.439999
-148.412994	261.567993	998.997009	11.213125	-26.066250	37.056252
-88.206001	245.098007	1026.264038	-2.983750	-43.080624	25.169374
-76.615997	175.985001	992.835999	-5.223750	-26.416250	26.171249
-3.416000	132.675003	1146.433960	-8.220625	-28.958124	13.208125
8.296000	166.529999	1230.552979	-13.431250	-16.489374	0.205625
23.424000	92.903000	1343.890991	-18.073126	-6.951875	7.665000
-2.623000	22.509001	1500.599976	-6.899375	-7.805000	5.324375
-188.001999	60.451000	1313.086060	-13.711250	24.994375	14.406875
82.044998	-17.385000	1451.677979	12.088125	23.113125	22.400000
24.948999	-93.695999	1272.399048	-11.357500	29.820000	29.531250
-108.275002	-47.458000	1278.255005	-4.952500	40.053123	11.851875
120.169998	-47.214001	1212.070068	3.797500	67.204376	10.609375
-192.150009	60.633999	1035.597046	5.079375	83.566872	15.299375
-115.900002	19.215000	1041.574951	19.166876	72.834999	-25.313749
82.472000	-80.336998	1112.213013	7.975625	89.486252	-15.968750
-182.145996	-173.972000	1021.384033	-14.275625	115.583122	2.673125
-149.449997	-295.057007	944.158020	-14.656250	91.949371	-19.355000
-175.130997	-211.487000	803.979980	-2.931250	79.589996	-21.065624
-129.503006	-168.542999	389.424011	16.406250	73.097504	-1.785000
-381.006012	-189.832001	381.067017	9.922500	57.076248	12.792500
-345.442993	-155.244995	350.750000	18.838751	44.996876	3.915625
-532.773987	-72.895004	395.279999	17.180626	18.129999	-0.914375
-526.979004	-69.723000	502.640015	23.165625	-0.669375	-9.423750
-511.424011	-116.753998	588.223022	2.091250	-9.791250	-0.616875
-480.558014	-51.179001	641.049011	-6.190625	-13.181875	-0.481250
-444.873016	-64.660004	704.062012	1.128750	-21.735001	1.920625
-498.308990	29.768000	701.622009	13.943125	-24.303125	2.428125
-288.652008	150.059998	748.653015	25.637501	-32.326874	-0.778750
-278.953003	136.884003	726.937012	23.471874	-39.825626	-6.313125
-248.148010	132.979996	775.309998	23.957500	-35.616875	-1.128750
-339.769989	81.374001	712.601990	28.599375	-69.654373	-8.671250
-140.300003	-159.637009	916.281006	22.697500	-72.086876	-14.905625
-370.757996	94.611000	849.486023	-2.620625	-66.158752	-51.021252
-260.958008	16.714001	858.087036	3.788750	-68.250000	-49.608124
-123.585999	60.389999	954.833008	19.600000	-91.704376	-60.182499
-142.374008	16.409000	797.148010	8.785000	-76.829376	-37.349377
-82.837997	-39.833000	906.704041	-11.195625	-69.820625	-10.246250
119.926003	-114.436005	1092.692993	-20.365625	-53.392502	-13.510000
130.540009	-271.450012	1182.180054	-59.806252	-61.188751	-2.703750
230.397003	-215.147003	1433.438965	-31.889376	-97.505623	-23.296875
223.076996	-351.908997	1543.177979	-13.514375	-25.711876	-6.317500
100.162003	-258.395996	1558.306030	0.118125	-1.225000	-22.688749
226.066010	-153.475998	1547.386963	-3.412500	-24.084375	-19.363750
78.873001	-278.769989	1229.942993	-39.116875	-14.529375	-6.956250
109.556000	-111.996002	1100.379028	-22.496250	-14.761250	-21.253750
79.056000	-188.734009	1048.041016	-2.183125	10.211250	-11.431875
94.428001	-284.260010	1031.144043	-0.966875	10.517500	-8.911875
116.265999	-337.696014	995.520020	-4.563125	13.558125	-6.938750
206.057999	-389.179993	1043.953979	3.924375	12.941250	-7.735000
164.395004	-368.989014	999.546021	11.790625	28.153126	13.409375
62.037003	-313.601013	933.299988	27.912500	35.573124	12.276250
125.416000	-218.624008	872.788025	32.200001	18.751249	5.153750
124.318001	-172.874008	942.510986	20.370001	18.475624	15.400000
89.304001	-224.785004	947.635010	10.758125	28.870625	23.896250
23.912001	-178.852005	1019.798035	-2.205000	12.376875	31.670626
83.082001	-286.089996	1205.359985	-8.439375	3.666250	44.747501
78.080002	-154.634995	1136.674072	-17.023125	-11.410000	14.122500
218.257996	-59.779999	1073.843994	-23.826250	-22.181250	16.410625
137.494003	-52.154999	927.627014	-22.986250	5.735625	39.856251
81.679001	1.403000	824.536987	-26.477501	-19.210625	33.713749
215.025009	41.174999	917.074036	-34.422501	-28.752501	22.793751
118.706001	32.635002	883.280029	-18.746876	-8.666875	28.700001
150.304001	22.753000	1025.410034	6.501250	-21.301874	9.191875
44.591000	188.734009	969.351013	25.834375	-5.066250	14.262500
-16.592001	133.651001	996.252014	33.355000	-6.575625	18.151875
-1.220000	139.507004	1060.363037	23.865625	-13.755000	10.185000
77.470001	64.538002	1263.249023	21.008751	-6.378750	9.961875
122.487999	21.899000	1408.062988	8.881250	14.533750	6.768125
-16.714001	71.065002	1327.482056	-22.732500	-14.997500	16.620625
36.539001	-108.763000	1356.274048	-40.564999	7.358750	12.110000
-159.149002	-0.122000	949.770020	-22.395624	-29.999374	0.293125
272.304016	-181.962997	1266.055054	1.286250	-39.248123	-11.182500
192.150009	-115.595001	1289.357056	12.171250	30.428125	27.518749
92.292999	-215.757004	1375.733032	9.743125	44.983749	29.793751
228.872009	-172.507996	1476.139038	22.102501	76.930000	14.761250
244.000000	-137.555008	1223.477051	34.369999	110.403122	19.306875
69.905998	-51.056999	1005.768005	-12.499375	119.376251	25.029375
0.671000	-276.756989	751.825012	-25.725000	124.989372	33.639374
-227.957001	-168.360001	652.760986	-8.106875	118.120628	8.925000
-240.279007	-187.514008	559.004028	19.000626	105.708748	-6.405000
-234.544998	-157.990005	543.510010	14.266875	55.496876	-9.384375
-223.748001	-145.912003	524.966003	16.248751	57.522499	3.075625
-201.727005	-154.634995	477.752014	-0.310625	55.685001	36.680000
-516.426025	-65.148003	429.440002	10.714375	44.887501	34.295624
-485.316010	-25.559000	546.377014	15.995000	24.451876	9.843750
-497.882019	53.008999	615.002014	1.168125	3.766875	-5.761875
-474.153015	87.901001	637.145020	-0.813750	-3.578750	-8.290625
-469.639008	59.963001	634.522034	3.123750	-8.548750	-8.719375
-401.075012	91.865997	657.885010	11.291875	-22.299376	-6.282500
-382.774994	81.069000	648.247009	20.374374	-18.913124	-3.346875
-288.529999	106.750000	512.583008	15.811250	-20.930000	-9.025625
-409.675995	105.652000	593.591003	18.952499	-58.231251	-10.976875
-212.768005	5.185000	533.811035	20.645624	-59.653126	-11.983125
-266.020996	142.007996	759.267029	20.168751	-121.533127	-21.385000
28.548000	163.419006	850.950012	46.628750	-126.756874	-26.022499
24.827000	229.542999	1014.429993	-31.145624	-113.404373	-30.292500
-0.671000	128.649002	1003.267029	-15.063125	-113.732498	-23.406250
46.726002	-76.737999	1108.614014	-13.685000	-75.368126	-22.662500
171.897995	-154.695999	1203.164062	-6.930000	-95.095001	-37.489376
173.117996	-130.479004	1318.026978	-4.935000	-63.993126	-46.917500
181.719009	-235.520996	1373.049072	-26.831875	-24.924376	-54.932499
217.709000	-138.653000	1275.998047	-31.206875	-51.003750	-62.264999
276.696014	-310.856018	1528.964966	-26.980625	-5.346250	-28.787500
76.982002	-220.576004	1467.904053	-14.450625	15.986250	-24.709999
98.697998	-256.687988	1278.133057	-21.490000	10.465000	-0.161875
8.113000	-196.298004	1049.383057	-24.132500	23.371250	-7.389375
124.623001	-225.578003	1049.322021	-18.891251	11.134375	-10.521875
110.043999	-263.214996	1030.777954	-9.467500	19.158125	-1.898750
126.880005	-262.666016	1000.643982	-1.553125	29.330000	3.281250
140.178009	-367.890991	988.382996	-0.332500	39.073124	22.426250
24.217001	-375.821014	866.871033	-0.323750	28.446251	22.330000
75.457001	-389.545990	890.783020	6.825000	22.697500	27.803125
-44.469002	-351.665009	864.187012	13.356875	24.731874	26.792500
21.289000	-323.666016	946.049011	25.799376	-0.980000	8.557500
40.748001	-190.563995	991.432983	-7.035000	-18.720625	27.916876
112.911003	-178.242004	1061.461060	-14.879375	-34.426876	24.941875
111.751999	-183.244003	1047.248047	-26.722500	-4.165000	17.500000
180.376999	-85.460999	1015.283997	-33.656876	-1.872500	14.231875
255.468002	-25.864000	1117.093018	-11.646250	-24.368750	41.203751
95.281998	-30.012001	1051.395996	-7.783125	-21.800625	42.682499
103.639000	109.800003	1009.001038	7.704375	-1.723750	13.943125
141.947006	153.110001	959.652039	23.309999	-11.213125	2.226875
56.913002	224.053009	1104.770996	39.353127	-34.842499	-12.018125
216.001007	197.701004	1089.582031	23.673124	-26.770624	-0.288750
87.840004	142.313004	1015.101013	15.242500	8.255625	15.793750
99.795998	80.031998	1047.614014	8.876875	7.980000	8.343125
118.766998	48.556000	1052.677002	10.880625	10.416875	-0.665000
81.801003	16.226000	1069.208008	0.595000	12.796875	4.541250
117.303001	-41.053001	1168.088989	1.688750	12.145000	1.995000
22.814001	-35.806999	1099.769043	-2.865625	13.440000	7.021875
63.013000	-58.011002	1369.023071	3.036250	1.505000	-8.890000
287.248993	-7.747000	1376.708984	-31.005625	5.530000	19.757500
-70.150002	31.537001	1246.779053	-53.270000	52.368752	44.353748
-62.952000	-72.285004	1296.738037	-34.741875	7.831250	6.838125
-65.026001	-100.589005	1318.149048	-11.134375	38.766876	7.433125
23.058001	-186.111008	1273.924072	14.157500	57.474377	9.034375
91.317001	-227.225006	1262.516968	22.146250	66.176247	8.610000
149.938004	-226.676010	1089.093994	18.974375	88.086250	6.776875
30.073000	-155.244995	1032.912964	9.362500	91.428749	6.164375
-124.074005	-150.487000	872.361023	9.730000	96.026878	0.030625
-116.693001	-125.477005	803.919006	7.678125	73.937500	-17.259375
-231.251007	-76.067001	733.281006	7.293125	71.001877	-18.571875
-176.350998	-158.356003	622.200012	17.500000	52.981251	-6.636875
-448.289001	-175.192001	501.602997	7.271250	55.033127	-5.980625
-316.285004	-184.768997	574.375977	-1.518125	38.950626	-8.592500
-490.317993	-129.380997	580.049011	5.748750	27.295626	-5.070625
-437.431000	-153.903000	504.531006	11.274375	25.427500	-3.180625
-395.890015	-65.270004	600.362000	-0.402500	7.966875	-0.498750
-502.152008	-42.151001	524.234009	6.041875	3.937500	-1.592500
-393.694000	-84.362999	674.049988	-8.063125	-2.852500	-1.356250
-421.449005	66.612000	643.427979	0.441875	-14.389375	-1.872500
-402.539001	-3.721000	618.234985	33.184376	-36.347500	-12.748750
-239.303009	28.243000	659.898010	29.417500	-44.187500	-17.373125
-246.378998	142.923004	657.824036	17.403749	-45.587502	-12.958750
-205.997009	-43.066002	671.122009	-2.590000	-55.391876	-6.238750
-296.338013	70.698997	793.000000	-15.089375	-54.232498	-21.879375
-110.288002	-100.772003	729.194031	-35.848751	-77.131248	-30.384375
-375.515991	2.684000	981.307007	-32.948124	-88.878128	-32.563126
13.054000	-97.294998	931.470032	3.517500	-88.156250	-53.510624
100.894005	-90.584999	979.416016	-15.894375	-53.685623	-14.581875
-222.406006	-193.796997	1253.123047	-46.939377	-93.817497	-25.725000
82.594002	-401.441010	1198.101074	-23.279375	-81.296249	-65.104378
253.699005	-392.839996	1404.098022	-3.867500	-63.525002	-55.720001
20.984001	-463.050995	1329.860962	3.246250	-27.833750	-22.238125
116.144005	-368.806000	1352.431030	-8.338750	-6.282500	-33.105625
83.082001	-358.863007	1170.773071	-12.744375	-40.411877	-22.924999
75.334999	-374.417999	1166.197998	1.815625	-11.497500	-14.371875
160.735001	-341.722015	1129.536987	14.931875	-10.749375	-25.143126
190.197998	-342.697998	1086.837036	9.848125	0.166250	-12.368125
182.207001	-351.787018	1103.612061	5.538750	16.699375	-3.605000
166.895996	-268.826996	962.213989	4.116875	15.496250	1.487500
179.949997	-378.444000	950.807007	7.350000	16.568125	8.855000
149.328003	-401.319000	872.178040	24.224375	20.492500	13.838125
139.994995	-380.457001	863.210999	22.137501	4.606875	18.974375
95.831001	-312.869019	834.236023	15.124375	15.172500	44.642502
99.369003	-388.813995	906.582031	15.155000	-3.666250	35.590626
198.677002	-309.026001	996.252014	19.394375	-9.471875	24.578751
269.924988	-317.505005	1135.942017	28.271250	12.770625	25.440624
282.429993	-273.890015	1116.910034	23.983749	13.002500	34.514374
237.167999	-110.959000	1093.425049	9.874375	13.650000	38.701248
151.828995	-90.341003	1009.855042	-20.181875	-21.686874	44.362499
111.751999	330.864014	1036.755981	15.220625	23.721251	27.116249
129.076004	300.973999	1055.727051	17.815001	0.813750	25.746876
106.322998	357.338013	1123.192993	-9.025625	10.233125	37.038750
-75.579002	269.681000	978.440002	-11.865000	25.510626	39.121250
-66.306999	238.632004	935.191040	-12.350625	-4.055625	19.320000
-6.344000	123.525002	1050.480957	-5.744375	5.560625	19.263124
-44.957001	38.979000	1046.394043	-1.365000	16.305626	19.853750
17.202000	-15.311000	1123.498047	-4.151875	-10.631250	3.933125
42.944000	-47.580002	1174.677002	-2.016875	-7.966875	3.066875
8.906000	-47.458000	1154.485962	-3.858750	-10.675000	1.977500
96.136002	-90.829002	1271.545044	9.520000	-17.854376	-6.037500
39.223000	-62.586002	1204.322998	-1.548750	-7.433125	14.901250
124.867004	-127.612000	1222.256958	-1.058750	-7.577500	23.686251
77.714005	-162.626007	1227.869019	-12.582500	10.202500	15.828750
78.568001	-129.930008	1304.424072	-10.272500	34.601875	3.762500
24.095001	-125.721001	1341.817017	-1.579375	36.649376	-14.835625
125.843002	-121.329002	1487.607056	-11.313750	63.319374	-19.477501
152.255997	-57.706001	1210.239990	-0.686875	77.647499	3.832500
62.159000	-201.910004	1179.618042	7.433125	106.907501	13.076875
-178.546997	-165.798004	870.348022	-1.290625	101.858749	11.480000
-174.520996	-111.081001	817.705017	1.859375	104.601875	-8.894375
-188.734009	-165.126999	659.410034	-11.191250	95.431877	-0.511875
-196.602997	-184.951996	581.817993	-19.748751	80.661873	-5.853750
-277.671997	-151.402008	447.923004	-12.298125	65.646873	-5.355000
-294.752014	-172.691010	349.652008	-15.570625	48.632500	8.938125
-402.112000	-207.766006	370.941010	-6.422500	38.893749	4.965625
-516.731018	-129.197998	414.921997	5.341875	28.927500	-2.817500
-507.946991	-84.302002	576.877014	11.375000	19.936874	-10.456250
-485.498993	-211.059998	656.359985	9.926875	13.028750	-4.366250
-508.923004	-126.086998	692.166992	-8.946875	-4.694375	0.568750
-468.053009	-93.208000	648.613037	-3.123750	-12.600000	3.653125
-444.140991	-71.675003	536.190002	11.816875	-30.213751	1.592500
-355.996002	-101.870003	584.013977	22.929375	-26.556250	5.560625
-412.542999	31.049000	617.686035	38.779999	-27.098749	-7.616875
-335.011993	-1.342000	672.768982	33.731251	-44.642502	-13.457500
-314.942993	47.763000	678.869019	28.293125	-46.878124	-11.589375
-238.143997	9.943000	688.629028	35.546875	-72.878754	-9.423750
-366.976013	-60.451000	788.791016	10.456250	-71.544373	-15.133125
-187.819000	-5.063000	993.263000	-0.013125	-91.721878	-30.170000
31.537001	-65.270004	961.604004	-1.544375	-89.556252	-49.013126
-26.657000	-114.680000	1328.702026	-2.721250	-103.350624	-55.553749
-40.015999	-114.070000	1158.634033	-0.511875	-104.693748	-52.998749
349.957001	-377.712006	1398.546997	1.592500	-71.785004	-49.910000
17.507000	-274.011993	1276.242065	-11.900000	-40.976250	-34.523125
204.960007	-363.621002	1322.358032	-18.379375	-33.258751	-24.184999
11.651000	-379.175995	1278.193970	-16.651251	-18.418751	-6.405000
35.806999	-356.179016	1219.572998	-11.650625	-1.575000	-19.884375
43.615002	-345.382019	1266.359985	-5.578125	-29.093750	-21.691250
65.209000	-358.131012	1226.893066	5.613125	14.424375	-19.197500
93.573997	-344.894012	1158.451050	8.176875	6.689375	-13.422500
73.809998	-335.438995	1066.768066	3.281250	8.890000	-5.438125
87.351997	-376.431000	987.101990	-0.927500	8.833125	9.861250
99.552002	-417.911011	918.233032	-10.574375	10.123750	18.484375
-11.468000	-291.153015	990.091003	5.932500	7.949375	5.871250
110.043999	-343.856995	956.479980	16.861250	17.626875	6.479375
162.199005	-473.238007	989.176025	-6.212500	28.660625	21.638750
-32.513000	-380.274017	911.828003	-8.977500	2.773750	13.943125
311.404999	-321.226013	891.332031	9.244375	-40.092499	-1.255625
98.514999	-197.945007	862.052002	14.866250	7.560000	37.432499
307.867004	-69.479004	1045.052002	14.997500	-12.407500	39.011875
209.473999	-24.278000	972.156982	34.203751	-2.008125	48.404999
204.350006	104.737000	1085.494995	41.636875	15.076250	26.381250
148.656998	278.098999	1152.594971	10.311875	3.491250	55.037498
58.255001	258.274017	1038.036987	-0.371875	-2.043125	65.288124
-6.588000	265.654999	970.632019	-6.374375	10.416875	52.906876
-14.457000	233.141998	995.825012	-8.246875	-7.901250	39.799374
73.809998	194.651001	1030.350952	5.486250	-11.366250	25.760000
42.028999	87.961998	1032.912964	2.673125	-6.173125	13.680625
38.430000	6.832000	1006.195007	2.804375	-1.824375	11.873750
47.519001	-68.320000	1103.185059	-4.620000	0.297500	9.970625
-26.535000	18.117001	1067.195068	-3.714375	0.070000	-1.898750
173.240005	-31.476000	1228.113037	4.064375	-14.564375	-14.175000
97.904999	71.736000	1324.859009	-2.205000	0.682500	-0.673750
-25.132000	36.722000	1286.672974	-11.764375	14.918750	6.238750
-16.042999	19.642000	1330.410034	-21.157499	8.045625	-11.497500
87.230003	-6.527000	1423.008057	-33.669998	18.099375	-16.568125
-13.847000	-40.382000	1370.364990	-42.962502	37.362499	4.423125
114.009003	-192.638000	1407.453003	-12.166875	50.238125	-8.190000
93.695999	-254.979996	1287.282959	-4.961250	78.596878	17.924376
68.259003	-235.033005	1104.161011	12.945625	99.876877	20.733126
-12.444000	-260.287018	1148.385986	17.049376	113.995003	26.862499
-77.592003	-221.979004	839.604004	-10.320625	91.647499	14.476875
-195.139008	-111.996002	801.234985	2.852500	103.796875	-7.923125
-154.513000	-161.040009	613.538025	10.311875	95.458122	0.218750
-188.612000	-159.576004	542.838989	1.159375	71.977501	2.905000
-406.382019	-132.126007	464.454010	11.598125	71.045624	1.255625
-389.912018	-102.785004	505.446014	19.665625	38.933125	-6.033125
-443.653015	-61.732002	498.796997	25.125626	35.743752	5.783750
-490.928009	-58.987000	522.708984	40.210625	12.407500	15.106875
-406.076996	-147.193008	567.910034	28.927500	17.233126	12.761875
-501.420013	-14.213000	570.533020	8.973125	9.533125	12.420625
-478.666992	-122.854004	590.052979	5.971875	-5.687500	11.042500
-507.764008	10.553000	554.856018	0.332500	-11.046875	-3.933125
-620.125977	87.230003	577.609009	12.674375	-31.517500	2.957500
-515.572021	9.272000	609.023987	31.495625	-44.362499	-2.681875
-455.182007	-3.477000	639.768005	26.031250	-41.772499	-15.080625
-419.436005	161.589005	748.348022	23.764999	-49.301876	-1.413125
-149.876999	3.660000	732.122009	-5.621875	-60.213123	-4.305000
-453.778992	79.910004	920.124023	-19.740000	-40.145000	0.218750
-206.302002	8.845000	961.421021	-3.259375	-76.689377	-39.033749
-245.525009	19.215000	936.166992	-6.921250	-80.014374	-28.835625
-121.634003	69.479004	984.845032	1.491875	-89.661247	-40.009377
166.591003	-103.944000	975.329041	-15.653750	-93.235626	-6.921250
-61.427002	-60.633999	1203.164062	-13.890625	-52.272499	6.851250
-100.223000	-43.188000	1050.847046	13.496875	-87.298752	-12.022500
-157.867996	121.207001	1083.665039	-4.353125	-78.224998	-47.070625
224.541000	19.825001	1075.490967	18.230625	-58.095627	-52.976875
265.593994	-136.029999	1187.243042	5.578125	-53.130001	-31.793125
46.604000	-65.696999	1127.401978	-16.152500	-7.385000	-28.980000
208.436996	-204.837997	1249.401978	-14.875000	-24.101875	-42.805000
192.638000	-147.619995	1093.852051	-28.153126	-5.096875	-48.969376
153.781006	-251.503006	1279.657959	-44.218124	-21.966875	-41.855625
155.184006	-204.960007	1257.393066	-32.073124	-12.722500	-12.792500
145.729004	-224.479996	1245.681030	4.278750	2.581250	-10.714375
263.580994	-233.813004	1197.917969	7.490000	22.194374	-7.350000
110.288002	-103.456001	941.596008	-0.004375	25.641874	1.452500
20.313000	-50.935001	929.700989	0.157500	18.143126	0.936250
27.023001	-48.129002	932.080017	7.218750	5.525625	0.161875
51.179001	-138.714005	930.616028	23.738750	-4.676875	-3.132500
172.874008	-242.962997	1004.182007	14.726250	-6.916875	6.387500
150.121002	-330.681000	917.989014	8.343125	1.645000	15.592500
179.706009	-373.747009	896.822021	22.999374	13.151250	22.763124
36.355999	-360.998016	890.783020	30.546249	20.006874	21.739374
77.714005	-320.433014	967.338013	19.315624	-3.211250	9.415000
142.313004	-259.250000	1108.308960	-1.605625	-19.827499	21.612499
153.292999	-145.180008	1163.087036	-13.580000	-19.004999	6.575625
256.505005	-71.736000	1272.093994	-18.007500	-9.436875	25.182501
329.644012	-126.696999	1166.259033	-22.071875	8.671250	36.802502
83.570000	37.637001	1048.041016	-22.776251	12.289375	31.701250
314.760010	30.805000	1116.239014	-19.818750	8.185625	34.396252
249.856003	28.914000	970.205017	-25.545626	15.487500	50.999374
-23.607000	136.029999	928.603027	-20.986876	-9.778125	38.285625
249.551010	135.054001	988.322021	16.865625	-21.551250	24.123751
78.445999	181.292007	871.751038	29.605625	12.359375	42.555626
103.456001	176.350998	977.158997	14.980000	-5.923750	10.395000
4.453000	119.011002	991.127991	5.267500	-9.747500	7.446250
151.951004	77.897003	1061.583008	4.983125	-5.433750	-4.711875
123.159004	31.110001	998.447998	-12.053125	-2.559375	5.451250
128.770996	-22.875000	1067.317017	-8.260000	-5.726875	-2.961875
168.421005	-80.581001	1131.427979	-5.131875	1.010625	3.036250
90.158005	-39.406002	1169.919067	-6.440000	2.296875	3.513125
83.021004	-25.986000	1278.560059	-8.570625	-0.043750	4.143125
112.118004	-58.804001	1314.854980	-23.782499	-2.629375	11.230625
16.958000	6.283000	1213.229004	-18.934999	-1.483125	-6.335000
56.364002	-80.764000	1300.641968	9.213750	-7.236250	-2.485000
84.424004	-97.478004	1262.516968	8.964375	4.173750	-3.123750
173.606003	-100.772003	1277.583984	11.895625	47.516876	3.911250
286.882996	-159.759003	1323.943970	8.741250	62.374374	14.052500
125.965004	-280.661011	1169.248047	-5.048750	74.620003	9.406250
198.311005	-161.406006	1158.695068	1.430625	79.589996	-6.562500
137.860001	-214.048996	947.635010	0.485625	101.521873	2.642500
-60.938999	-98.759003	919.941040	0.087500	85.771873	2.467500
-50.386002	-144.203995	877.119019	5.980625	65.861252	7.315000
-166.347000	-93.147003	780.372986	16.008125	70.262497	-3.850000
-43.188000	-182.451004	740.479004	2.270625	55.260624	15.531250
-147.315002	-123.220001	683.382996	-3.968125	76.195000	24.176250
-266.020996	-77.592003	581.390991	9.458750	72.633751	20.313126
-316.346008	-117.547005	592.919983	1.260000	48.278126	15.439375
-411.506012	-33.244999	548.268005	19.333124	19.823126	8.207500
-448.411011	-62.464001	559.125977	14.455000	23.983749	15.351875
-515.694031	28.792000	581.147034	9.467500	21.717501	16.021250
-637.023010	33.123001	546.194031	-0.113750	1.623125	7.240625
-456.951019	27.632999	640.377991	-5.696250	-9.874375	-0.599375
-264.739990	75.945000	595.970032	21.516251	-19.919374	-9.493750
-266.692017	202.947006	669.780029	36.198750	-32.930626	-10.193750
-110.776001	76.615997	482.632019	38.749374	-32.484375	-17.395000
-352.885010	61.487999	774.455994	-2.804375	-32.764374	8.518125
-227.529999	153.110001	849.608032	5.626250	-70.332497	-9.690625
-277.916016	53.497002	752.496033	-3.727500	-62.230000	-12.582500
46.848000	39.284000	1014.796021	-6.995625	-79.143753	-45.491249
-124.074005	-40.748001	1135.332031	0.643125	-64.618752	-31.023125
37.881001	-114.862999	953.734985	4.361875	-40.796875	-24.924376
-213.072998	-112.056999	1081.774048	6.164375	-67.545624	-34.348125
-97.417000	-60.451000	1040.843018	-30.660000	-90.321877	-46.449375
-148.108002	-122.610001	1085.677979	-34.986874	-82.656876	-27.671875
114.070000	-368.806000	1358.775024	-39.221874	-27.842501	-39.431873
-4.697000	-213.255997	1135.636963	-28.892500	-51.681873	-41.418125
75.822998	-247.660004	1242.692017	-26.674376	-29.032499	-21.201250
-34.403999	-383.385010	1377.502075	-11.335625	1.093750	-17.325001
-15.067000	-221.247009	1218.170044	-16.861250	-57.483124	-15.417500
40.564999	-338.489014	1361.825073	-14.634375	-4.200000	7.590625
-43.493000	-332.998993	1258.369019	-6.278125	-1.032500	-7.153125
96.136002	-329.460999	1146.556030	13.033125	2.555000	0.315000
46.482002	-303.048004	1022.604004	11.458125	12.866875	-0.236250
143.410995	-347.944000	918.843018	8.325625	-7.021875	2.156875
105.957001	-444.446014	938.119019	14.704375	5.779375	21.594999
71.858002	-450.485016	936.471985	18.108126	30.821875	17.504375
49.227001	-349.834991	806.359009	24.360001	9.743125	17.976875
204.960007	-395.524017	945.988037	18.235001	-2.524375	35.914375
60.389999	-382.470001	986.858032	20.251875	22.421875	38.180626
194.285004	-278.037994	964.226990	7.476875	-12.031250	14.682500
268.888000	-172.386002	1042.916992	5.831875	-18.252501	7.931875
287.309998	4.880000	1012.234009	-23.318750	4.449375	28.118126
224.479996	32.330002	1129.659058	-21.551250	10.171875	31.346874
140.971008	53.741001	1025.837036	-25.213125	18.051250	30.104376
128.283005	12.993000	1010.281982	-35.507500	-1.163750	46.939377
38.247002	-58.255001	978.440002	-33.118752	11.742500	57.036877
38.796001	-8.235000	1026.995972	-8.618750	-8.277500	16.371250
158.356003	83.570000	1124.779053	0.936250	-15.732500	14.245000
7.991000	157.746002	985.515991	8.343125	2.734375	13.037500
83.570000	160.003006	955.747986	14.017500	-3.088750	6.746250
-64.355003	113.399002	941.046997	6.002500	9.047500	12.464375
-57.522999	-18.239000	1064.816040	14.249375	3.202500	8.561875
0.000000	-38.552002	1133.807007	25.366249	3.478125	-0.043750
-60.146000	-46.909000	1204.201050	26.661249	3.185000	-2.012500
7.747000	-119.133003	1410.503052	19.473125	-8.601250	3.272500
-129.930008	-2.867000	1348.222046	6.960625	10.001250	11.821250
-166.042007	-50.874001	1276.912964	-12.525625	3.115000	6.090000
122.061005	-113.094002	1416.176025	1.093750	-11.620000	3.885000
2.013000	-60.329002	1159.915039	-0.643125	22.605625	14.883750
136.395996	-109.861000	1169.308960	-19.766251	-7.113750	-8.019375
241.438004	-186.050003	1201.578003	-44.043125	34.492500	25.322500
13.481000	-125.538002	1222.744995	-30.966249	72.012497	37.161251
40.382000	-278.037994	1172.664062	-10.438750	67.733749	16.900625
66.978004	-201.788010	1023.031006	-3.049375	76.081253	1.907500
-118.096001	-256.382996	960.750000	-13.982500	96.652496	24.263750
-246.561996	-283.101013	867.786011	12.495000	96.656876	17.701250
-109.312004	-233.813004	702.658997	36.076248	73.486877	-4.418750
-138.348007	-217.160004	739.991028	30.852501	69.820625	3.648750
-243.329010	-210.876999	598.653992	29.658125	68.998123	7.271250
-232.837006	-136.274002	537.288025	11.309375	45.018749	7.306250
-427.183014	-168.481995	538.020020	-4.466875	36.977501	6.111875
-359.229004	-78.812004	555.221985	-3.548125	23.983749	-3.876250
-550.647034	-107.177002	535.458008	-13.313125	21.984375	6.676250
-518.866028	-122.487999	645.502014	-22.203125	6.352500	11.672500
-533.505981	-84.119003	581.330017	-3.451875	-0.039375	6.566875
-463.783020	-145.423996	643.184021	7.945000	-6.632500	-1.640625
-426.817017	-76.189003	683.871033	11.628750	-15.592500	-4.541250
-310.673004	-49.653999	697.962036	23.366875	-18.694374	-0.192500
-273.707001	-21.777000	813.862000	14.888125	-37.541874	-6.181875
-295.666992	84.302002	733.463989	30.834999	-24.570000	-9.769375
-322.751007	28.121000	663.741028	6.374375	-34.181873	11.501875
-257.602997	111.691002	740.661987	-7.612500	-35.105000	-6.361250
-361.791016	120.597000	860.221985	26.066250	-44.734375	-30.065001
-217.098999	72.223999	971.242004	31.486876	-57.820000	-44.695000
-97.844002	100.772003	942.389038	21.135626	-82.451248	-49.153126
-213.682999	66.978004	1017.601990	17.075624	-64.570625	-21.188126
-58.560001	-102.723999	969.046021	13.203750	-62.269375	-33.748749
-122.854004	-28.792000	1057.984009	13.606250	-73.933128	-36.924999
21.106001	-99.857002	1105.076050	29.933750	-93.961876	-44.493752
113.582001	-50.081001	1226.953979	-6.947500	-70.778748	-24.998751
-43.554001	-84.180000	1246.046997	-26.193125	-41.387501	-6.877500
84.362999	-139.873001	1276.973999	-20.995625	-48.553749	-15.798125
96.624001	-253.943008	1423.801025	-35.367500	-35.805000	-5.433750
-19.703001	-235.154999	1287.161011	-40.494999	-33.827499	-20.028749
124.500999	-260.165009	1507.980957	-15.356250	-40.617500	-36.255627
158.660995	-223.320999	1392.447021	-12.197500	-5.333125	-14.205625
17.690001	-233.569000	1184.315063	-22.378124	18.243750	-0.288750
92.292999	-204.899002	970.510010	-21.061251	11.099375	-8.763125
141.947006	-278.343018	961.543030	-5.495000	12.455625	-0.516250
95.160004	-314.515991	939.583008	12.429375	14.245000	5.486250
132.065002	-376.369995	941.473999	21.450624	16.003750	13.177500
57.522999	-423.096008	800.564026	27.085625	12.661250	21.135626
136.518005	-509.533020	934.337036	3.801875	-5.346250	25.309376
104.798004	-384.666016	921.405029	-20.221251	-15.618750	36.163750
23.302000	-304.450989	951.843994	-9.073750	-6.864375	22.014999
210.084000	-305.122009	1008.695984	-9.852500	-11.742500	19.635000
186.294006	-118.523003	1045.844971	-6.374375	8.833125	20.492500
426.695007	-116.265999	1171.443970	-22.286249	-22.421875	22.150625
234.544998	66.489998	1026.081055	-22.846251	-52.793125	40.586876
167.322998	114.680000	974.902039	-2.703750	-10.893750	48.715626
304.634003	35.136002	961.359985	-6.055000	2.397500	52.290001
143.533005	72.406998	968.375000	-1.233750	-0.249375	32.138748
130.845001	65.696999	984.296021	6.125000	15.382500	-3.618125
212.829010	58.621002	1078.968018	11.541250	-8.894375	-26.853750
157.563004	89.181999	1067.682983	14.774375	-5.613125	-13.326250
183.244003	-0.305000	1044.747070	5.958750	3.797500	-9.016875
102.601997	-73.444000	1031.448975	1.771875	6.146875	11.046875
118.461998	-121.146004	1090.924072	4.668125	1.238125	4.891250
87.840004	-146.339005	1146.617065	2.358125	4.475625	9.406250
70.638000	-171.593002	1449.542969	1.645000	-2.345000	11.755625
77.287003	-165.249008	1606.252075	-11.541250	11.252500	30.988125
58.681999	-195.809998	1669.082031	-30.856874	47.293751	37.786877
-102.541000	-54.411999	1399.035034	-22.723749	44.165627	34.566875
22.936001	-209.229996	1432.036011	-4.366250	45.709999	-9.073750
204.227997	-59.535999	1403.427002	12.525625	49.866249	-15.045625
107.177002	-299.326996	1105.930054	-7.796250	102.812500	14.940625
118.584000	-298.778015	1012.478027	-3.228750	104.610626	12.407500
-12.627000	-301.828003	847.229004	14.595000	111.715622	7.170625
-163.906998	-225.456009	739.686035	24.080000	109.042503	-11.641875
-74.664001	-155.244995	604.205017	14.030625	82.906250	-7.713125
-147.436996	-235.460007	560.406982	12.298125	61.210625	18.913124
-239.973999	-199.775009	426.572998	-7.949375	50.211876	34.921249
-323.117004	-194.651001	500.566010	-11.768750	38.994373	46.602501
-563.091003	-141.703003	469.944000	23.480625	59.828125	26.495001
-366.976013	-172.264008	670.085022	20.492500	20.378750	-12.250000
-501.054016	-114.741005	671.609985	25.576250	31.290001	2.765000
-457.865997	-51.240002	590.358032	12.005000	10.950625	7.039375
-556.869019	-47.153000	660.203003	3.268125	14.275625	18.895624
-554.307007	-41.174999	674.538025	3.062500	7.223125	13.440000
-529.174988	-37.271000	659.531982	11.335625	-8.001875	-5.149375
-500.200012	21.472000	615.734009	8.089375	-11.983125	-17.018749
-396.256012	101.625999	630.862000	6.142500	-21.735001	-15.986250
-431.880005	139.263000	632.814026	6.501250	-21.236250	-5.744375
-395.951019	118.950005	576.999023	13.173125	-13.501250	-11.051250
-337.696014	61.122002	667.583984	26.245625	-9.091250	2.870000
-413.824005	99.002998	681.492004	24.368750	-37.931252	-20.457500
-257.664001	21.837999	871.629028	13.409375	-60.025002	-33.761875
-310.550995	107.787003	889.929016	7.472500	-78.400002	-47.669998
-42.395000	-147.681000	993.507019	7.297500	-52.661877	-62.260624
-300.425018	19.398001	927.932007	-33.845001	-101.460625	-68.180000
-197.274002	-38.857002	916.281006	-13.610625	-69.006874	-15.071875
-269.071014	-277.123016	931.835999	11.440625	-40.337502	-30.178749
-120.719002	-78.080002	957.639038	15.058750	-91.419998	-61.783749
-94.488998	-227.469009	1157.291992	-15.194375	-73.421249	-45.268124
64.476997	-82.289001	1192.610962	6.514375	-65.904999	-37.336250
-74.664001	-303.414001	1182.973022	-16.288124	-29.203125	-6.623750
-46.237999	-258.761993	1257.453979	-24.434376	-40.184376	-29.973125
205.630997	-217.770004	1341.817017	-4.033750	-15.036875	1.741250
-143.533005	-362.401001	1124.108032	-10.403750	77.402496	39.134377
-98.942001	-346.968018	1328.152954	-8.771875	-32.016251	-31.193750
221.917999	-383.994995	1481.567993	-11.760000	-60.165001	-39.794998
-33.123001	-217.647995	1188.401978	-4.825625	-14.525000	-31.154375
59.170002	-173.972000	1070.123047	11.768750	-4.751250	-18.077499
-55.265999	-400.282013	1003.083984	-8.715000	19.018126	27.448750
18.788000	-460.428009	875.471985	-4.033750	2.979375	7.980000
67.892998	-485.011017	866.505005	0.455000	-10.749375	-0.945000
100.894005	-508.191010	826.611023	12.700625	-1.290625	-2.791250
109.738998	-397.231995	826.671997	10.898125	-25.830000	1.868125
188.734009	-349.041992	979.660034	16.638124	-25.961250	21.669374
193.796997	-329.338989	1007.720032	11.051250	13.724375	35.590626
182.451004	-274.438995	1014.491028	-7.866250	14.573125	30.992500
282.002991	-231.800003	1068.659058	-23.183125	-20.925625	35.805000
329.278015	1.464000	1105.503052	2.069375	-36.811249	36.294998
253.393997	5.551000	1103.734009	7.201250	8.299375	45.596249
234.606003	2.074000	1127.828979	-2.883125	-0.175000	54.578125
131.820999	-74.664001	1084.640991	-6.006875	21.341249	52.832500
141.214996	70.210999	1004.426025	-4.633125	26.941250	14.065625
152.378006	51.728001	1049.322021	-14.809375	16.874374	7.752500
0.061000	38.735001	998.204041	-18.930626	2.642500	-3.508750
-12.627000	38.186001	979.416016	-9.611875	-2.108750	-4.685625
73.749001	2.928000	1015.101013	11.676875	-6.794375	-4.213125
129.259003	29.889999	907.314026	23.485001	-1.640625	0.271250
51.972000	-173.606003	1205.542969	13.431250	2.721250	1.496250
-1.647000	-177.266006	1226.893066	9.625000	-3.504375	3.801875
-31.110001	-21.594000	1298.506958	14.568750	-0.918750	6.496875
20.313000	-18.361000	1385.249023	16.231251	4.515000	11.217500
-44.285999	-147.009995	1509.505981	-9.940000	19.324375	8.697500
5.307000	-76.555000	1582.828003	-10.631250	19.271875	23.476250
-36.904999	-126.514000	1367.254028	-3.491250	81.742500	32.217499
-90.341003	-131.393997	1222.683960	-12.215000	57.907501	4.191250
136.884003	-166.529999	1211.886963	-10.622500	45.447498	6.593125
-63.928001	-265.838013	1107.881958	-3.504375	77.183746	21.227501
-64.050003	-361.608002	1040.233032	24.644375	94.963753	19.201876
-211.731003	-196.419998	888.221008	46.261250	73.570000	17.010000
-299.692993	-138.591995	848.083008	85.671249	104.658752	10.548125
-241.682007	-261.690002	700.950989	43.732498	91.927498	-6.698125
-308.171997	42.944000	619.150024	8.146250	32.283127	-8.448125
-265.106018	-172.264008	543.510010	3.941875	54.529999	-8.671250
-63.562000	-92.720001	605.851990	-26.893126	18.886875	14.783125
-607.559998	33.306000	462.136017	3.211250	60.790627	16.791250
-330.253998	-78.568001	566.934021	19.980625	38.972500	-13.776875
-496.052002	-126.148003	538.263977	7.700000	34.160000	5.770625
-469.821991	-51.605999	625.067017	-5.862500	-5.635000	-6.667500
-491.355011	32.513000	575.351990	-13.864375	-21.166250	0.612500
-474.824005	24.217001	558.272034	-4.834375	-6.076875	5.250000
-475.190002	90.829002	518.682983	-1.006250	-29.001875	-2.686250
-453.169006	78.018997	563.640015	16.257500	-17.425625	-13.527500
-449.143005	120.169998	537.471008	16.428125	-48.352501	-27.715626
-284.931000	114.497002	755.668030	23.616249	-64.946877	-25.200001
-348.432007	169.275009	760.609009	27.746250	-56.586250	-12.193125
-182.634003	160.979004	1106.357056	25.830000	-45.018749	-9.760625
-144.264999	-17.019001	795.440002	38.784374	-69.816254	-15.102500
-156.343002	116.205002	998.204041	17.438749	-64.443748	-16.703751
-118.766998	124.135002	939.095032	18.217501	-67.112503	-25.383751
-150.792007	-156.526001	938.911987	4.746875	-24.639999	-20.492500
-155.916000	32.390999	1005.218994	-7.481250	-76.413750	-43.535625
-200.568008	47.580002	909.997986	-30.926874	-106.400002	-33.744373
-64.416000	-94.428001	1129.415039	-48.291248	-72.283752	-18.567499
114.497002	-81.618004	1166.747070	-19.761875	-85.421875	-24.613750
139.873001	-216.001007	1152.656006	-24.648750	-10.793125	12.582500
203.557007	-107.482002	1106.967041	-43.303749	-69.400627	-32.195625
105.103004	-188.367996	1083.542969	-40.263126	-11.847500	-11.440625
26.596001	-280.477997	1144.359985	-30.712500	-12.932500	-27.908125
134.932007	-301.523010	1174.982056	-9.835000	-32.200001	-39.580624
126.086998	-330.985992	1265.994019	1.487500	-2.209375	-35.927502
103.639000	-197.212997	1144.909058	2.130625	-7.888125	-31.968124
209.718002	-296.765015	1273.863037	5.980625	-11.217500	-23.174376
126.331001	-210.022995	1169.065063	5.092500	6.973750	-14.100625
125.781998	-155.367004	1079.395020	6.855625	11.488750	-5.989375
185.806000	-277.306000	1077.015991	6.702500	21.730625	6.750625
76.006004	-374.235016	950.380005	9.205000	21.052500	6.518750
124.074005	-472.018005	950.014038	-3.163125	11.620000	21.275625
-22.875000	-455.670013	870.348022	-27.584375	5.761875	28.433125
103.578003	-382.470001	879.437012	-24.268126	-7.328125	31.128124
181.658005	-411.506012	969.168030	-0.201250	2.988125	52.189377
68.685997	-431.880005	954.161987	11.340000	32.506248	59.535000
86.558998	-292.678009	970.754028	22.115625	20.772499	29.588125
184.647003	-167.139999	998.447998	4.401250	-16.852501	29.680000
265.166992	-217.281998	1086.348999	-7.923125	-14.542500	46.125626
159.393005	-26.230000	974.718994	5.831875	1.789375	28.428749
179.035004	22.082001	1004.791992	-7.616875	-31.434376	22.785000
149.449997	92.292999	1001.864014	-11.501875	-20.715626	18.598125
116.022003	140.178009	956.723999	-32.523750	-20.776875	22.093750
120.719002	47.336002	1073.661011	-27.299999	-37.257500	9.266250
147.742004	73.078003	1158.328979	9.476250	-27.553749	-3.180625
206.057999	48.983002	1061.277954	2.003750	-11.160625	7.809375
186.660004	29.280001	1045.296021	-5.372500	-9.988125	10.220000
182.389999	-26.291000	1023.153015	2.887500	-6.597500	2.384375
184.708008	-55.083000	998.509033	4.886875	-8.846250	-6.706875
207.888000	-154.085999	1115.506958	8.960000	-0.035000	0.717500
165.615005	-178.303009	1187.303955	2.905000	-0.993125	-3.193750
115.900002	-148.596008	1350.723022	-4.558750	-25.230625	-15.785000
225.089996	-204.167007	1565.869995	-6.326250	-32.926250	-5.604375
101.625999	-106.932999	1530.855957	20.378750	-54.433750	-22.701876
544.791016	-76.250000	1485.472046	25.178125	-35.997501	-15.859375
482.388000	-41.785000	1374.940063	14.520625	67.375000	30.878750
292.312012	-168.970001	1152.229004	6.378750	104.313126	39.182499
225.822006	-154.451996	1100.927979	-14.468125	94.110626	5.801250
249.063004	-106.262001	963.556030	-44.318748	89.250000	-11.506250
50.813000	-179.949997	925.492004	-12.661250	103.626251	-5.477500
70.333000	-249.673004	798.002014	7.061250	105.870628	-0.288750
-45.567001	-291.519012	879.315002	3.132500	107.686249	19.293751
60.268002	-225.639008	840.275024	9.117500	92.815628	34.750626
-94.183998	-293.471008	555.648987	6.982500	82.206253	36.548752
-160.917999	-193.553009	613.294006	5.503750	69.811874	14.616875
-343.125000	-112.911003	446.093018	16.314375	68.018127	14.105000
-431.575012	-149.145004	486.475006	22.071875	61.105625	11.558750
-371.734009	-88.450005	434.747009	12.521250	38.530624	18.882500
-490.257019	-48.494999	544.729980	3.749375	25.930626	20.418125
-458.720001	7.625000	505.507019	25.068750	-0.651875	-3.145625
-340.807007	-22.691999	589.320984	33.621876	-4.090625	-21.144375
-393.511017	216.854996	405.955017	27.890625	-20.798750	-26.954374
-191.173996	98.514999	774.944031	6.803125	-34.838123	1.771875
-301.950012	4.636000	689.848999	-28.026251	-15.277500	19.004999
-448.899017	121.817001	503.006012	-15.995000	-44.778126	-7.341250
-318.359009	12.444000	686.005981	12.267500	-50.181252	-31.053749
-110.959000	-17.080000	763.841980	11.125625	-63.135624	-25.322500
-388.570007	9.516000	513.375977	10.596250	-59.902500	-26.254375
-12.688000	-285.846008	907.679993	-14.463750	-117.669998	-42.546875
-29.524000	-143.533005	985.638000	-9.563750	-116.646248	-77.122498
363.621002	-134.261002	1230.858032	23.205000	-112.183746	-75.879997
13.725000	-286.944000	1066.707031	-23.371250	-109.847504	-28.896875
145.973007	-299.083008	1444.541016	-4.291875	-55.046249	-48.282501
210.876999	-273.584991	1286.245972	-8.408750	-66.626877	-47.490623
252.906006	-245.830002	1470.466064	-24.066875	-41.746250	-43.264374
284.626007	-353.921997	1449.421021	-5.621875	6.947500	-35.310623
247.598999	-243.755997	1220.061035	-14.520625	-1.470000	-16.590000
108.823997	-207.095001	1185.352051	-15.518125	-28.319374	-8.653750
126.270004	-212.097000	1048.773071	-12.648125	-5.180000	-17.066875
241.376999	-224.296997	1143.932983	-8.890000	-13.286875	-12.258750
232.348999	-284.260010	1065.670044	-5.390000	0.822500	3.421250
206.973007	-355.325012	971.364014	3.416875	13.562500	4.978750
232.531998	-360.937012	1047.614014	22.351875	10.762500	1.426250
155.671997	-385.459015	955.260010	29.036875	11.838750	1.977500
224.663010	-404.917999	927.017029	37.034374	17.040625	-11.418750
246.378998	-277.733002	961.177002	46.698750	21.026251	-8.443750
206.973007	-251.807999	923.845032	37.642502	28.748125	1.500625
354.471008	-238.510010	958.249023	13.168750	-2.607500	13.947500
253.699005	-171.348999	1021.445007	-31.128124	-1.448125	53.064377
295.727997	-230.275009	1034.926025	-32.326874	18.961250	70.026253
124.440002	-166.285995	942.450012	-13.304375	7.048125	66.272499
271.389008	-127.185005	975.877991	-10.513125	8.356250	54.626251
256.444000	-75.701004	920.794983	-24.001249	-10.224375	40.880001
233.934998	21.045000	950.746033	-24.683750	-19.236876	27.916876
366.304993	22.570000	1044.320068	-6.221250	-4.046875	15.526875
178.608002	152.927002	1091.656006	-7.411250	-3.014375	37.117500
91.072998	85.095001	1023.275024	-2.196250	21.035000	27.584375
65.758003	77.409004	997.228027	0.052500	4.375000	7.630000
87.168999	6.527000	957.517029	8.666875	1.115625	-0.835625
86.375999	-10.736000	1082.018066	9.690625	5.223750	17.224375
115.167999	-85.217003	1104.893066	20.072500	7.910000	11.685625
97.478004	-64.111000	1117.885986	21.061251	8.338750	15.863750
5.124000	-114.314003	1142.224976	18.353125	13.615000	16.703751
85.034004	-90.097000	1150.032959	23.948750	-2.581250	5.276250
-26.718000	-33.062000	1293.993042	12.005000	22.019375	5.215000
27.023001	-29.951000	1384.089966	-16.450001	9.428125	20.584375
-79.117004	-72.895004	1316.989990	-18.248125	20.671875	29.032499
48.068001	-132.186996	1364.997070	-4.291875	23.616249	-3.828125
75.762001	-234.179001	1320.406006	-16.611876	18.108126	1.413125
252.235001	-264.252014	1363.105957	-20.851250	29.141874	1.233750
214.415009	-366.183014	1204.750000	-31.136875	60.208752	25.016251
104.554001	-271.144989	1072.197021	-0.555625	87.189377	13.361250
8.174000	-247.111008	913.780029	29.977501	97.689377	7.525000
-24.766001	-178.181000	798.429016	30.296875	83.413750	6.413750
-131.882004	-135.419998	667.645020	19.184376	73.438751	18.156250
-172.813004	-141.581009	731.634033	29.159374	68.201874	-12.271875
-114.070000	-147.132004	669.658020	29.911875	61.696251	-6.671875
-250.893005	-96.868004	713.151001	14.743750	62.365623	12.884375
-402.782990	-35.990002	659.715027	2.021250	54.569374	20.545000
-361.912994	-45.567001	586.515015	-2.139375	55.422501	10.876250
-506.056000	17.323999	530.638977	-21.271250	39.733749	14.249375
-522.892029	43.675999	585.539001	-7.485625	36.653751	-0.682500
-551.684021	-45.567001	578.585022	-8.505000	12.521250	7.398125
-538.996033	-6.161000	630.679016	-0.310625	-2.537500	-3.425625
-485.987000	-27.877001	618.966980	15.557500	-4.550000	-8.960000
-401.441010	15.982000	573.278015	16.196251	-8.855000	-0.888125
-371.856018	215.818008	452.803009	30.384375	-11.707500	-9.673125
-348.859009	131.089005	537.471008	31.500000	-19.844999	-12.490625
-368.806000	165.737000	517.158020	12.337500	-61.066250	-22.281876
-71.675003	69.052002	976.671021	45.692501	-51.817501	-30.213751
-390.705017	84.302002	643.489014	44.467499	-41.369999	-19.888750
-13.115000	71.003998	941.169006	21.713125	-98.896873	-36.229374
-248.636002	-29.341000	1015.283997	24.386250	-62.470627	-30.270624
-88.999001	-127.489998	906.460022	30.515625	-39.633125	-19.376875
-206.485001	65.331001	852.475037	39.239376	-94.430000	-22.973125
-93.025002	32.939999	1065.182007	14.017500	-33.792500	-30.292500
-107.725998	-151.889999	1285.148071	-55.741875	-100.056252	3.290000
25.437000	-181.779999	1478.334961	-47.490623	-86.078125	-32.348751
141.214996	-150.425995	1385.920044	22.181250	-37.559376	-39.112499
-16.348000	-272.791992	1487.484985	-5.718125	-24.972500	-41.203751
-12.139000	8.418000	1259.223022	-53.860626	-62.790001	-38.950626
85.339005	-10.248000	1171.870972	-33.560623	-27.142500	-23.323126
74.969002	-241.804001	1372.744019	-35.704376	0.275625	-2.778125
28.548000	-153.598007	1218.170044	-35.157501	-6.641250	0.507500
129.625000	-290.054993	1170.956055	-12.328750	-14.704375	4.055625
67.709999	-309.391998	1113.921021	-2.288125	7.809375	12.228125
102.236000	-372.832001	1003.816040	31.526251	7.284375	-3.696875
-16.775000	-289.567017	936.289001	28.835625	12.149375	-5.123125
131.820999	-407.419006	1026.385986	27.680626	-34.028751	-18.558750
142.496002	-219.600006	968.863037	5.341875	-32.291874	-14.761250
235.826004	-221.917999	1040.964966	-19.140625	-15.701875	17.906876
223.320999	-320.372009	964.166016	-17.998751	16.331875	38.071251
218.257996	-230.945999	900.848022	-5.206250	16.292500	27.216875
183.488007	-217.770004	1026.751953	-12.595625	9.485000	43.710625
273.890015	-300.546997	1005.218994	-21.131250	2.996875	39.081875
438.346008	-124.318001	1081.774048	-0.708750	-15.115625	9.887500
304.450989	-166.225006	1074.636963	-17.031876	-2.051875	42.914375
132.613998	50.142002	1006.439026	9.183125	26.276251	29.697500
183.548996	65.148003	991.738037	12.018125	39.182499	42.778751
89.548004	134.261002	887.611023	-6.755000	-8.916250	44.690624
76.127998	156.953003	1076.711060	-10.220000	-29.535625	18.414375
48.250999	188.734009	1052.432983	-8.557500	-47.110001	14.555625
140.544006	93.695999	925.004028	4.156250	-35.258125	16.992500
240.645004	43.675999	1056.947021	20.606251	-3.255000	19.101250
112.118004	55.875999	946.598022	21.188126	28.196875	24.674999
155.733002	80.946999	1150.520996	11.501875	-10.950625	-0.376250
-5.307000	159.087997	1065.364990	-3.784375	4.488750	4.816875
84.180000	22.875000	1114.775024	-15.115625	-7.428750	10.880625
-94.976997	55.754002	1155.523071	-1.531250	-4.917500	5.438125
154.451996	-44.591000	1299.727051	-0.765625	-27.969376	-0.927500
168.970001	-67.892998	1477.724976	-17.115000	11.843125	6.164375
-56.669003	3.111000	1366.278076	-14.660625	28.840000	-5.096875
200.385010	-133.406998	1336.754028	-15.763125	10.128125	-16.760626
108.580002	-75.152000	1288.807983	-9.979375	52.263748	-10.066875
103.578003	-147.559006	1314.306030	-1.080625	55.116249	-12.696250
78.018997	-262.056000	1327.786987	-10.154375	89.018127	1.999375
172.630005	-250.710007	1207.617065	10.867500	92.837502	-4.081875
116.693001	-290.299011	841.861023	-4.204375	84.629997	3.084375
31.171000	-137.981995	868.640015	12.280625	75.621872	3.198125
-56.547001	-269.924988	740.052002	13.938750	88.199997	15.181250
-164.944000	-165.188004	626.958008	10.723125	82.385628	10.049375
-160.369003	-258.395996	851.255005	16.200624	59.171875	17.828125
-275.658997	-195.199997	543.510010	20.632500	62.466251	21.463751
-355.752014	-137.005997	487.938995	16.563749	44.056252	11.961250
-349.713013	-161.345001	567.971008	14.770000	42.498749	6.116250
-467.382019	-55.083000	587.979004	11.921875	25.519375	-8.535625
-438.955994	-29.463001	658.861023	12.578125	25.567499	-1.395625
-495.625000	-25.559000	460.855011	-0.533750	15.395625	10.495625
-492.575012	13.725000	559.431030	-2.502500	8.876875	7.271250
-451.033997	71.980003	545.828003	-0.529375	-10.097500	8.115625
-421.632019	54.534000	596.518982	-5.193125	-13.689375	9.305625
-415.105011	135.847000	630.557007	2.301250	-29.688749	-0.735000
-262.299988	55.754002	764.390991	5.267500	-35.708752	7.008750
-352.701996	76.189003	816.851013	13.973750	-8.872500	5.976250
-354.287994	29.889999	820.815979	9.213750	-58.060623	2.633750
-289.445007	41.968002	696.986023	15.706250	-40.853748	-13.545000
-136.762009	-14.335000	782.690979	-8.785000	-54.810001	-17.027500
-136.518005	156.281998	875.471985	0.393750	-42.949375	-9.331875
-335.622009	87.047005	705.526001	3.316250	-52.373123	-16.423750
-68.747002	49.105000	910.303040	9.905000	-92.163750	-40.954376
-69.295998	68.990997	1045.417969	37.655624	-92.316872	-33.954376
-63.135002	-52.338001	975.939026	-4.676875	-75.490623	-25.068750
206.729004	97.234001	1288.380981	-26.683125	-125.304375	-57.653751
206.057999	-90.158005	1333.703979	-47.424999	-53.541248	-34.527500
172.691010	-157.380005	1388.604004	-26.040001	-44.283749	-48.720001
45.993999	-323.848999	1364.875000	-8.386875	2.856875	-21.266874
102.297005	-263.398010	1306.925049	-0.258125	-31.622499	-33.079376
240.218002	-200.690002	1200.723999	3.233125	-17.985624	-12.127500
73.626999	-229.421005	1136.063965	0.240625	19.363750	-1.763125
69.540001	-228.628006	1053.286987	-10.071250	13.295625	-10.797500
43.126999	-216.916000	1131.550049	-13.772500	10.863125	-7.603750
49.837002	-260.958008	1158.268066	-14.000000	18.904375	-6.120625
75.517998	-201.421997	1092.631958	-7.328125	2.266250	-5.455625
78.507004	-180.621002	1006.622009	-7.328125	7.459375	1.579375
85.643997	-176.473007	918.721008	3.543750	2.008125	2.480625
123.159004	-307.135010	953.491028	7.061250	-3.963750	4.952500
85.460999	-371.123993	972.767029	8.251250	0.564375	6.111875
95.586998	-385.886017	909.997986	12.840625	-8.058750	4.624375
112.606003	-454.266998	1032.973999	4.392500	0.608125	15.378125
91.439003	-448.289001	971.364014	-3.167500	7.656250	18.291876
117.973999	-325.130005	915.061035	-9.502500	-16.292500	12.525625
108.030998	-337.024994	1079.943970	-5.092500	-10.819375	18.948126
295.727997	-355.141998	991.921021	-23.550625	6.046250	25.230625
338.489014	-258.029999	1101.660034	-24.902500	-8.067500	35.748123
257.541992	-179.706009	1072.014038	-28.686874	11.055625	46.628750
128.649002	-52.643002	975.390015	-5.341875	4.790625	41.085625
223.260010	-73.321999	1064.449951	3.605000	-16.095625	17.005625
139.018997	114.070000	993.994995	8.925000	-24.723125	25.856251
79.300003	1.708000	971.669006	8.776250	-30.393126	34.921249
212.951004	41.418999	1043.161011	6.225625	-39.453751	23.362499
84.302002	17.263000	1011.135986	16.275000	2.235625	19.171249
194.834000	59.048000	969.595032	11.755625	-9.585625	9.384375
168.542999	52.154999	996.739990	6.562500	-10.373125	13.212500
189.649002	-25.010000	1029.984985	-2.375625	-11.571875	3.189375
162.931000	-90.036003	1194.318970	-1.618750	-6.663125	4.760000
196.298004	-97.417000	1229.211060	-5.888750	-1.513750	4.322500
133.589996	-63.928001	1308.083984	-10.583125	-8.395625	-1.868125
153.415009	-84.667999	1356.151978	-15.868125	1.474375	11.423125
16.409000	-95.465004	1317.051025	-1.452500	-1.526875	-9.830625
233.507996	-106.079002	1394.703979	-9.003750	-32.755627	-25.445000
294.264008	-224.541000	1535.369995	-21.017500	7.450625	13.895000
125.843002	-138.287003	1373.903076	-15.216250	49.371876	35.818127
279.257996	-238.266006	1209.995972	1.334375	56.354374	22.841875
243.329010	-332.938019	1196.697998	34.269375	117.967499	-12.923750
158.050995	-153.292999	926.041016	28.096251	103.258751	-12.219375
156.037994	-216.184006	912.559998	5.600000	95.926247	7.603750
163.296997	-270.535004	694.546021	-11.978750	94.316254	22.968750
-82.959999	-246.867004	643.184021	-5.770625	95.952499	24.281250
-111.508003	-179.401001	486.658020	29.098125	91.546875	20.295626
-197.822998	-271.328003	479.886993	26.744375	77.288750	19.131874
-340.989990	-217.221008	544.546997	17.858749	68.433746	-1.137500
-475.007019	-109.312004	493.123993	15.793750	45.779999	-0.721875
-539.239990	-59.779999	477.446991	10.040625	32.431873	8.798125
-430.903992	-54.473000	588.955017	-7.341250	9.786875	11.523750
-459.574005	-54.656002	549.793030	0.332500	-3.460625	8.662500
-509.350006	49.897999	578.523987	-2.493750	-11.029375	-9.900625
-402.356018	47.458000	624.395996	3.482500	-21.411249	-12.783750
-493.002014	81.923004	668.559998	30.340626	-26.836250	-18.331249
-280.966003	95.281998	729.315979	43.470001	-24.762501	-16.344999
-320.067017	51.118000	691.679016	10.552500	-36.128750	7.905625
-345.442993	86.437004	719.799988	31.753750	-66.863129	-25.318125
-4.392000	-12.139000	838.200989	29.723749	-46.633125	-26.726875
-24.948999	-57.827999	764.147034	3.206875	-45.036251	-1.207500
-32.390999	26.047001	860.893005	-23.393126	-48.562500	-2.371250
-137.188995	118.584000	754.692017	-3.088750	-64.736877	3.530625
128.710007	-315.858002	1224.208984	-14.218750	-9.756250	-10.268125
-213.255997	209.352005	900.481995	-34.540627	-101.955002	-37.961876
240.279007	-209.962006	1331.385986	-1.666875	-79.782501	-53.025002
-205.875000	-220.027008	1181.997070	-11.055625	-37.725624	-44.804375
46.299000	-103.028999	1327.299072	1.115625	-61.289375	-38.228748
-141.641998	-338.306000	1357.615967	7.166250	-30.423750	-14.105000
52.216000	-211.609009	1229.760010	2.266250	-23.336250	-30.384375
-34.587002	-250.649002	1185.901001	3.845625	-21.953751	-39.165001
204.289001	-254.370010	1245.010010	-15.535625	-18.760000	-37.590000
0.244000	-178.608002	1117.031982	-13.422500	-20.912500	-6.203750
40.809002	-264.800995	1117.885986	-2.734375	-10.460625	-1.351875
161.772003	-283.649994	1178.154053	1.837500	-0.350000	-1.645000
64.171997	-204.716003	992.226013	-5.486250	4.733750	4.707500
178.303009	-369.964996	1066.768066	-13.759375	15.719375	12.372500
99.430000	-362.644989	931.531006	-23.401875	13.562500	28.078751
-5.307000	-316.468018	871.080017	-2.187500	5.346250	17.101875
-64.233002	-251.137009	851.987000	19.280624	17.093124	7.678125
187.819000	-367.524994	963.007019	13.190625	8.789375	9.143750
83.021004	-298.472992	1036.145996	2.178750	5.368125	15.995000
65.514000	-170.494995	1076.100952	9.489375	9.642500	5.906250
226.371002	-136.212997	1014.796021	3.749375	-0.166250	26.630625
-19.215000	-21.899000	1118.130005	-20.361250	-10.495625	35.122501
87.718002	-95.709000	1065.974976	-50.111252	-1.203125	27.352501
141.459000	-148.169006	1147.227051	-69.488129	-29.163750	9.218125
182.938995	-108.153000	1107.088989	-31.014376	-33.481876	2.607500
283.345001	-236.557999	980.697021	-6.755000	-7.070000	37.371250
171.410004	-172.569000	969.351013	11.698750	-18.519375	37.235626
139.934006	-96.868004	995.764038	9.030000	-12.245625	28.953751
-48.556000	6.161000	1010.770020	17.885000	-11.672500	27.396250
217.221008	-48.250999	1043.588013	26.827499	-13.746250	28.236250
200.690002	43.310001	970.327026	16.261875	-14.770000	15.933750
165.919998	100.650002	981.856018	1.185625	-11.265625	-2.568125
147.376007	37.453999	1030.046021	-10.924375	-4.681250	-3.272500
72.895004	25.437000	1049.383057	-10.211250	-6.615000	4.786250
99.795998	-84.912003	1132.221069	-8.001875	1.544375	6.343750
47.945999	-160.796005	1383.541016	-12.464375	-35.196877	-13.903750
194.529007	-200.751007	1523.780029	7.205625	-27.133751	-22.255625
101.870003	-98.392998	1539.761963	21.695625	1.373750	-21.875000
406.748016	-229.908997	1605.947021	-0.813750	22.093750	-0.993125
195.382996	-195.871002	1442.711060	-19.674376	69.474998	20.365625
235.154999	-240.035004	1340.230957	-5.923750	84.774376	15.977500
329.522003	-323.239014	1054.506958	-0.428750	58.703751	9.349375
117.303001	-230.458008	915.244019	1.080625	93.029999	15.907500
23.546000	-250.587997	819.840027	17.010000	97.658752	15.855000
-0.061000	-334.341003	902.861023	18.493126	90.658752	-5.131875
38.003002	-115.167999	824.903015	32.077499	90.623749	9.817500
-91.561005	-177.143997	748.104004	8.181250	83.457497	17.740625
-54.473000	-161.528000	681.979980	-7.835625	63.323750	7.275625
-259.981995	-118.461998	590.479980	-12.788125	73.788750	12.236875
-271.755005	-160.856995	416.873993	-4.221875	50.365002	6.405000
-395.157990	-114.314003	481.046021	-1.430625	34.264999	-4.283125
-403.393005	-117.363998	485.132996	4.379375	36.793751	-1.478750
-475.983002	-99.125000	482.022003	11.256875	31.066875	6.295625
-522.281982	-98.576004	599.447021	20.566875	18.786249	-3.710000
-407.785004	-135.237000	701.195007	10.014375	-0.936250	-0.791875
-432.795013	-102.785004	686.372009	9.975000	-7.389375	10.088750
-408.273010	25.315001	687.591980	9.961875	-28.888124	-0.367500
-336.658997	71.858002	712.052979	19.175625	-33.805626	3.850000
-434.197998	90.462997	655.200989	12.823125	-26.153749	17.465000
-272.731018	-28.975000	826.549988	17.867500	-21.892500	5.495000
-459.574005	168.725998	769.393005	14.586250	-51.051876	-10.036250
-160.125000	-38.247002	867.481018	18.020624	-28.861876	-12.923750
-208.132004	-47.396999	863.393982	1.439375	-25.891251	-16.988125
-213.682999	146.095001	796.171997	3.128125	-69.803123	-4.226250
-203.984009	109.250999	742.979980	43.968750	-64.548752	-8.570625
-37.576000	-25.925001	929.884033	-0.240625	-88.064377	-18.200001
-37.820000	53.924000	1044.015015	-10.902500	-77.498749	-35.293125
155.001007	82.106003	784.643005	-9.887500	-94.845627	-41.186249
103.944000	-164.944000	1329.190063	-5.162500	-38.451874	-27.195000
22.936001	-35.319000	1090.009033	-19.884375	-40.110001	-54.967499
76.677002	-157.990005	1160.890991	-37.979374	-54.171249	-37.222500
91.500000	-216.001007	1428.558960	-25.571875	-44.515625	-24.666250
125.477005	-188.612000	1227.563965	-6.094375	-27.667500	-21.529375
143.899002	-188.856003	1211.216064	-9.410625	-20.317499	-11.725000
180.742996	-181.169998	1261.723999	-39.147499	-12.783750	-19.420626
97.294998	-229.360001	1226.709961	-11.138750	-15.592500	-8.439375
90.584999	-340.989990	1286.978027	2.174375	13.466250	2.213750
30.378000	-250.832001	1114.836060	-8.824375	-4.497500	-0.542500
90.767998	-327.447998	1085.677979	-14.730625	-3.801875	1.085000
107.725998	-352.640991	1010.648010	-5.818750	6.348125	8.028125
16.104000	-320.615997	908.351013	5.158125	6.728750	5.560625
126.148003	-390.338989	937.325989	10.780000	-6.286875	4.156250
118.035004	-362.950012	937.082031	10.596250	-2.760625	12.263125
72.956001	-352.213989	910.303040	4.873750	7.581875	16.883125
177.815002	-299.265991	993.445984	7.533750	9.375625	14.192500
96.746002	-243.572998	993.812012	-5.101250	16.231251	15.789375
204.106003	-262.421997	1087.508057	-18.016251	15.260000	11.414375
246.928009	-272.364990	1128.195068	-45.185001	6.650000	35.525002
103.334000	-253.089005	901.275024	-33.744373	-17.679375	28.109375
259.860016	-314.515991	1042.489990	-20.693750	16.305626	18.081875
173.300995	-256.321991	1033.523071	-28.533751	-8.640625	37.926876
62.464001	-160.369003	938.790039	-2.581250	-38.171875	25.270000
182.634003	-155.123001	1045.417969	-0.275625	0.630000	13.995625
130.173996	48.007000	946.354004	-13.160000	-3.062500	3.360000
140.421997	-81.923004	1117.520020	-0.463750	0.157500	10.850000
82.899002	55.510002	1017.296997	6.282500	-29.102501	-2.734375
107.665001	31.537001	1050.420044	17.731874	-19.508125	15.001875
162.809006	-122.975998	1103.062988	22.456875	-2.091250	27.041876
49.105000	-1.830000	1019.859009	16.983749	-4.353125	16.563749
148.779007	-84.362999	1108.735962	15.163750	6.851250	13.899375
71.492004	-53.313999	1126.487061	9.524375	14.923125	11.637500
59.963001	-58.804001	1155.828003	-1.592500	4.908750	3.346875
74.298004	-117.425003	1231.589966	-3.955000	2.651250	-0.192500
76.372002	-175.192001	1381.771973	-0.669375	-15.491875	-12.516875
169.701996	-138.775009	1294.359009	-0.214375	10.867500	4.602500
76.982002	-217.404007	1457.351074	-7.336875	33.591251	10.053750
181.169998	-241.376999	1342.427002	-24.316250	37.318748	18.900000
66.551003	-308.294006	1269.471069	-9.327500	55.098751	12.503750
176.656006	-323.910004	1310.645996	3.915625	72.550629	-1.115625
212.462997	-298.472992	1139.358032	1.378125	75.814377	8.076250
-17.568001	-304.572998	1256.172974	23.970625	89.823128	16.922501
66.673004	-353.433990	963.312012	23.476250	111.619377	32.060001
-83.264999	-256.261017	902.434021	25.847500	82.285004	12.691875
-5.856000	-277.976990	705.281982	-6.829375	64.833122	-0.647500
-329.399994	-135.664001	492.696991	10.206875	74.952499	-2.581250
-266.692017	-271.877014	346.296997	15.505000	68.389999	0.284375
-228.201004	-156.953003	522.587036	13.676250	50.268749	5.398750
-478.972015	-148.412994	470.675995	16.988125	45.670624	10.180625
-456.341003	-115.412003	520.879028	13.825000	29.023750	7.074375
-489.342010	-96.319000	487.024017	4.396875	5.171250	4.851875
-499.285004	-86.132004	600.423035	-2.769375	4.480000	-0.096250
-493.916992	-68.320000	638.731018	0.385000	-6.951875	2.100000
-447.373993	-109.495003	648.856995	-2.305625	-18.646250	-0.520625
-383.690002	-51.056999	647.575989	4.641875	-28.993126	4.086250
-379.359009	-0.549000	752.496033	13.142500	-36.172501	12.083750
-391.558990	120.536003	679.966980	21.739374	-31.530624	11.589375
-314.760010	14.457000	704.611023	10.648750	-58.060623	4.698750
-207.643997	154.451996	851.742981	11.943750	-53.781876	-3.880625
-271.205994	66.917000	717.786987	4.016250	-47.915001	-3.893750
-78.750999	1.830000	1001.803040	9.896250	-63.494373	-26.022499
-48.799999	40.077000	868.457031	22.561874	-78.925003	-33.197498
-3.416000	-55.632000	933.483032	11.510625	-55.934376	-13.374375
-19.398001	-26.474001	836.981018	12.241250	-58.852501	-39.178123
-7.442000	-170.800003	1243.973022	10.648750	-58.585625	-36.058750
17.019001	-134.626999	1150.582031	-3.294375	-73.985626	-51.253124
101.443001	-25.132000	1044.807983	-3.211250	-67.370628	-39.287498
59.475002	-158.294998	1139.723999	-8.526875	-26.963125	-28.393749
-16.226000	-50.507999	1076.406006	-29.898750	-24.254999	-24.110624
85.217003	-178.119995	1203.224976	-29.014999	-26.779375	-17.635626
120.474998	-233.203003	1284.233032	-17.088751	-8.955625	-11.606875
21.410999	-196.481003	1158.390015	-30.721251	-1.553125	-19.748751
104.737000	-199.714005	1262.822021	-28.450624	-30.756250	-8.439375
2.440000	-255.834000	1195.416992	-7.638750	-0.227500	-1.990625
110.166000	-272.304016	1185.656982	-6.645625	-12.088125	-7.498750
20.069000	-197.518005	1148.447021	-3.836875	-2.598750	-0.315000
37.453999	-253.455002	1114.348022	-3.443125	3.246250	-5.499375
111.264000	-257.420013	1018.333984	-9.826250	-4.449375	-4.585000
83.752998	-262.178009	958.309998	-9.852500	-6.501250	-0.354375
88.511002	-316.162994	944.768005	2.948750	-0.148750	-4.449375
137.005997	-344.588989	912.682007	8.417500	-0.319375	-2.336250
159.270996	-388.936005	940.376038	7.100625	-0.756875	5.814375
123.464005	-390.765991	950.562988	5.477500	2.524375	6.098750
121.756004	-242.414001	923.783997	7.879375	-12.683125	8.771875
168.725998	-277.671997	1000.156006	9.095625	-1.544375	17.486876
199.470001	-226.981003	1028.459961	6.046250	3.508750	13.965000
144.509003	-140.238998	1077.381958	-9.030000	-0.437500	2.445625
173.727997	-133.406998	1095.987061	-31.854376	-4.156250	12.630625
288.347015	-214.720001	1045.784058	-37.821877	-7.708750	24.290001
178.486008	-198.615997	952.454041	-38.211250	-10.377500	25.545626
294.812988	-243.268005	1020.835022	-30.415001	-4.226250	22.041250
216.428009	-171.593002	873.458984	-20.295626	-8.553125	21.695625
223.199005	-178.181000	947.085999	-8.006250	-3.246250	29.010626
84.912003	-162.382004	924.333008	-18.143126	-15.960000	42.857498
148.229996	-170.983002	1070.244995	8.890000	4.655000	13.256250
157.197006	-76.737999	1042.185059	11.921875	-6.908125	-2.983750
131.333008	45.628002	988.627014	24.123751	-8.483125	4.143125
127.489998	20.069000	1019.676025	25.116875	0.656250	19.232500
58.376999	87.535004	969.656006	12.853750	2.327500	17.005625
47.396999	2.135000	1055.360962	12.866875	0.721875	14.201250
87.168999	-68.014999	1141.370972	9.012500	1.001875	9.975000
-5.246000	-96.441002	1224.453003	8.391250	-10.136875	-1.999375
38.979000	-174.460007	1383.906982	5.096875	21.866249	27.260626
-31.049000	-185.013000	1382.625977	5.061875	13.527500	0.735000
117.791000	-217.891998	1305.765991	-13.925625	-1.710625	-14.433125
94.976997	-260.774994	1386.713013	-7.021875	22.531250	-6.737500
239.181000	-311.709991	1405.500977	3.298750	65.870003	4.309375
51.728001	-233.751999	1042.672974	-14.332500	9.288125	2.244375
247.354996	-219.477997	1080.493042	-4.545625	29.439375	8.688750
33.489002	-303.841003	916.890991	-0.700000	78.684372	45.504375
-53.008999	-388.509003	963.190002	23.331875	65.817497	8.964375
238.632004	-320.554993	1015.955017	32.392502	52.438751	-14.288750
-39.711002	-353.251007	826.122986	-3.596250	88.611252	17.775625
-46.786999	-235.033005	828.929016	23.187500	82.858124	6.133750
-137.738007	-205.082001	611.341980	40.923752	72.760628	14.958125
-251.563995	-69.662003	503.250000	35.297501	69.947502	28.205626
-351.665009	-168.542999	491.355011	16.646875	60.759998	16.327499
-385.153992	-39.589001	567.177979	-1.216250	36.010624	-2.721250
-497.882019	27.755001	437.308990	-0.061250	27.916876	4.431875
-335.438995	17.629000	628.604980	6.829375	10.386250	7.940625
-505.690002	39.711002	593.408020	16.397499	8.176875	27.230000
-556.197998	1.647000	568.215027	16.108749	2.905000	16.485001
-371.489990	63.379002	638.426025	11.497500	-29.220625	-13.943125
-325.984009	176.595001	668.072021	20.518749	-33.648125	-23.213751
-168.298996	25.559000	729.194031	10.355625	-38.062500	-9.454375
-248.391998	16.653000	793.182983	-11.746875	-23.940001	-11.781875
-260.897003	147.193008	782.325012	-6.181875	-30.948750	-26.718124
-47.091999	-41.968002	928.359009	-9.257500	-55.146873	-25.073126
-217.770004	125.903999	760.182007	-29.163750	-56.074375	-26.026875
-99.857002	108.214005	823.255981	-21.713125	-54.092499	-11.659375
9.760000	-89.121002	942.572021	-0.966875	-65.778122	-15.649375
255.102005	-194.834000	985.942993	-15.194375	-96.643753	-47.070625
96.746002	-277.062012	1022.543030	8.977500	-71.369377	-36.959999
27.877001	-247.781998	1048.346069	13.518750	-71.592499	-29.723749
101.260002	-213.682999	1275.754028	5.201875	-84.271248	-25.738125
110.348999	-293.044006	1344.013062	-17.653126	-45.071251	-27.282499
32.818001	-193.796997	1255.562988	-12.534375	-22.754375	-42.201248
164.151001	-326.532990	1562.453979	16.235624	-37.730000	-47.971874
139.384995	-296.338013	1355.907959	0.188125	-14.713125	-32.248123
157.807007	-224.663010	1302.166992	-18.987499	-8.596875	-24.027500
177.449005	-249.794998	1227.136963	-23.235624	3.535000	-1.093750
150.365005	-295.545013	1089.338013	-15.080625	7.043750	-6.295625
114.131004	-352.153015	1076.223022	-5.722500	21.770000	2.721250
39.101002	-346.175018	968.557983	2.891875	20.930000	-6.378750
134.199997	-358.497009	994.117004	7.043750	13.895000	-6.846875
101.503998	-507.337006	995.885986	-10.443125	25.287500	8.518125
109.738998	-430.294006	904.264038	-21.586250	18.059999	8.251250
129.869003	-366.731995	835.151001	-10.666250	9.699375	15.487500
136.091003	-470.248993	850.950012	-7.013125	24.062500	28.835625
109.495003	-361.119995	860.039001	-9.546250	2.423750	18.287500
123.830002	-307.135010	961.238037	1.658125	-4.935000	20.186251
203.251999	-231.007004	1035.047974	-9.843750	-19.438126	6.094375
243.085007	-171.654007	973.072021	-14.450625	-9.555000	16.887501
211.059998	-141.641998	1154.608032	-14.630000	0.306250	4.453750
281.759003	-10.431000	1109.346069	-18.690001	-20.370001	8.439375
151.097000	-34.831001	1107.515991	-24.390625	-14.091875	38.281250
63.989002	9.150001	1062.619995	-13.076875	-6.269375	36.675625
132.065002	27.999001	1094.339966	1.435000	-6.046250	30.226875
60.938999	59.414001	1052.432983	13.877500	3.880625	36.518124
-0.488000	43.798000	1000.765991	15.312500	2.852500	23.541876
39.040001	-55.875999	1012.112000	14.822500	18.138750	6.776875
3.050000	-44.774002	1106.540039	14.205625	15.203125	-5.674375
73.139000	-90.889999	1174.677002	7.021875	0.004375	-0.385000
-67.954002	-96.806999	1284.537964	8.185625	5.613125	-5.363750
60.938999	-157.867996	1421.421997	5.346250	6.129375	6.103125
20.313000	-274.438995	1549.827026	-5.398750	20.496876	23.502501
36.722000	-287.005005	1455.826050	-7.205625	20.623751	20.545000
106.567001	-370.696991	1298.933960	-8.990625	30.043125	29.658125
-74.237000	-372.343994	1241.045044	-7.691250	43.500626	10.364375
85.339005	-301.766998	1164.124023	21.616875	32.598125	-15.890000
22.326000	-145.302002	1028.216064	34.273750	96.000626	9.340625
-109.373001	-161.162003	897.614990	-1.518125	91.450623	40.311249
-227.102997	-165.554001	846.802002	1.526875	84.586250	21.035000
-256.566010	-173.057007	794.525024	18.694374	70.489998	-11.326875
-193.248001	-56.791000	861.625000	18.913124	56.402500	-11.357500
-79.238998	-156.464996	628.056030	10.088750	67.602501	6.868750
-401.075012	-139.690002	717.970032	11.357500	69.085625	-9.091250
-203.130005	-28.609001	720.958984	12.770625	46.545624	10.215625
-283.772003	-178.425003	597.312012	7.424375	36.395626	31.460625
-419.009003	-37.942001	537.776001	-3.268125	38.841251	24.543751
-515.815979	-71.980003	592.981018	3.539375	35.393749	9.878750
-554.184998	-57.706001	575.962036	11.125625	28.209999	-1.163750
-529.906982	-64.965004	608.536011	14.651875	-0.450625	-6.230000
-531.676025	-37.332001	624.030029	27.702499	-1.421875	-16.065001
-433.283020	0.061000	614.087036	16.734375	-21.315001	-14.004375
-520.879028	76.494003	655.994019	16.712500	-26.691875	1.255625
-398.696014	185.806000	550.525024	46.300625	-35.078751	6.431250
-336.842010	163.419006	516.914001	32.090626	-34.523125	22.640625
-361.791016	215.878998	597.983032	21.958124	-52.849998	20.391874
-157.257996	165.554001	728.828003	8.168125	-66.215622	-41.142502
-92.170998	137.067001	661.606018	16.651251	-85.032501	-54.385624
-190.869003	83.264999	717.786987	-1.080625	-74.996246	-27.851250
48.861000	130.417999	888.160034	-3.263750	-95.843124	-24.115000
-45.750000	-101.870003	1060.790039	-16.690624	-67.195625	-0.656250
73.321999	-111.081001	1041.635986	-24.841249	-77.035004	-37.121876
205.753006	-93.025002	1427.888062	12.954375	-92.605621	-28.245001
-16.226000	-267.424011	1251.536987	7.595000	-65.878754	-35.406876
182.145996	-81.008003	1109.346069	-23.051874	-99.360626	-49.437500
116.632004	-63.074001	1313.086060	-49.389374	-106.308128	-6.768125
279.562988	-256.139008	1363.899048	-18.523750	-19.403126	-26.534374
32.330002	-228.750000	1386.713013	-5.324375	-20.304375	-16.681875
117.791000	-211.425995	1493.401978	-18.532499	-26.486250	-32.641876
215.147003	-187.697006	1368.718018	-19.455626	-37.336250	-19.809999
112.056999	-314.028015	1235.188965	-22.999374	2.655625	0.301875
122.122002	-389.119019	1126.426025	-23.633751	16.021250	-1.273125
119.194000	-313.540009	964.715027	-16.231251	14.787500	2.095625
78.263000	-416.203003	919.148010	-9.065000	22.645000	5.188750
87.778999	-422.425018	853.023987	0.997500	7.848750	0.021875
141.947006	-419.436005	908.473022	13.448750	12.740000	7.643125
181.962997	-363.864990	891.697998	7.131250	-0.927500	20.387501
146.888000	-358.375000	1058.959961	6.706875	-16.511250	20.549376
220.332001	-350.322998	1073.234009	-0.656250	-8.185625	16.021250
295.239990	-290.481995	977.708008	-23.003750	2.415000	34.890625
180.742996	-334.097015	1068.475952	-22.312500	28.205626	47.219376
195.566010	-323.300018	992.104004	-25.488750	68.459999	35.196877
165.432007	-266.082001	993.934021	-21.048124	7.533750	24.486876
128.404999	-227.835007	1010.892029	1.596875	-15.964375	7.389375
119.987000	37.453999	995.093018	-2.170000	-28.485624	38.246250
122.061005	-37.271000	970.449036	5.678750	-19.477501	35.927502
165.432007	25.742001	1016.626038	-11.672500	-27.623751	8.058750
240.828003	35.196999	920.856018	-10.360000	-17.946251	15.124375
116.875999	-25.254000	983.807983	-1.780625	7.074375	10.955000
82.959999	109.190002	1088.118042	27.536249	-12.521250	-19.556250
220.332001	82.167000	1046.088989	33.446877	-10.272500	0.363125
-11.712000	49.776001	1109.956055	10.570000	-3.202500	14.691250
20.130001	23.851000	1176.873047	-0.175000	-7.398125	8.023750
70.455002	-88.938004	1238.421997	-7.940625	-6.969375	-1.216250
236.375000	-168.238007	1388.726074	14.140000	-33.175625	-3.066875
270.291016	-178.791000	1356.030029	6.969375	-51.156876	-22.518126
266.082001	-139.018997	1378.905029	-16.940001	1.649375	-14.157500
231.921997	-175.863007	1223.781982	-12.521250	56.166248	-10.902500
206.240997	-218.319000	1281.365967	7.280000	75.980621	-2.909375
202.397995	-199.042999	1213.473022	5.652500	88.138748	8.964375
53.497002	-186.781998	1112.945068	5.285000	95.186874	22.010626
33.672001	-296.216003	1215.669067	2.104375	89.560623	21.402500
67.892998	-289.079010	1138.138062	17.596251	79.922501	22.430626
40.504002	-285.235992	934.642029	44.511250	63.958126	14.017500
-13.725000	-89.059998	856.928040	41.146873	46.445000	22.391251
11.712000	-196.785995	616.039001	36.443748	86.935623	20.881874
-109.250999	-202.703003	569.984009	-7.980000	91.494377	6.615000
-208.559006	-4.636000	575.656982	-17.088751	77.879372	13.706875
-366.365997	-126.636002	462.257996	-5.744375	72.633751	18.331249
-384.056000	-0.061000	500.993011	5.661250	43.710625	-4.563125
-445.056000	-35.624001	506.971008	17.031876	46.436249	5.057500
-437.187012	-14.579000	540.765015	28.621250	28.415625	4.068750
-569.801025	19.215000	492.148010	12.175625	10.937500	1.150625
-548.085022	9.394000	615.367981	4.943750	-10.793125	-3.115000
-493.795013	70.028000	707.966003	6.803125	-22.120001	-16.826250
-392.657013	67.587997	658.921997	16.979376	-26.530001	-16.025625
-333.182007	-46.665001	869.189026	6.055000	-13.400625	4.917500
-455.121002	128.404999	824.963989	2.800000	-38.097500	11.838750
-457.622009	82.959999	847.716980	13.886250	-42.879375	10.902500
-238.753998	1.708000	830.697998	1.325625	-36.916248	-5.495000
-390.460999	111.508003	899.689026	-1.553125	-41.505627	-12.088125
-239.852005	75.212997	793.609985	8.255625	-46.217499	-24.941875
-165.859009	80.031998	740.966980	-6.391875	-56.393749	-1.754375
-230.458008	-156.770004	850.705994	-16.314375	-39.077499	11.252500
-138.591995	33.123001	862.418030	-26.394375	-52.189377	-16.878750
-33.062000	50.630001	843.385986	-12.534375	-94.014374	-20.921249
43.798000	-78.750999	976.061035	-0.595000	-80.368752	-27.286875
21.899000	-7.625000	1027.911011	-8.190000	-41.505627	-37.550625
165.126999	71.370003	1144.299072	-10.469375	-70.896873	-23.104376
188.673004	-133.102005	1172.786011	-5.053125	-69.715622	-27.754999
96.868004	-19.459000	1172.297974	-21.227501	-14.516250	-24.902500
276.390991	-167.201004	1351.088989	-0.485625	-67.808128	-28.590626
-67.587997	-195.932007	1251.659058	-12.215000	11.169375	-22.662500
82.289001	-346.175018	1332.057007	-8.561875	-18.195625	-3.933125
3.416000	-307.867004	1270.508057	-13.391875	-2.358125	-6.995625
4.636000	-236.740997	1124.412964	-16.021250	-17.622499	-14.883750
81.251999	-280.050995	1151.924072	-14.936250	-22.806875	-5.753125
17.202000	-278.891998	1040.050049	-11.886875	1.990625	1.408750
58.804001	-250.954010	995.031982	-11.396875	-3.653125	-5.320000
78.385002	-341.416992	1036.634033	-8.653750	3.202500	0.170625
35.929001	-340.623993	949.098999	-0.485625	8.855000	-6.286875
126.819000	-372.893005	900.116028	-8.631875	5.013750	9.349375
92.232002	-393.205994	842.104980	-2.686250	8.356250	11.523750
173.423004	-418.154999	930.616028	-5.901875	-9.948750	16.253124
105.224998	-417.362000	1049.383057	6.903750	-6.597500	21.485624
198.981995	-406.931000	1041.087036	14.818125	-7.078750	18.248125
305.365997	-340.929016	1055.056030	-5.635000	-19.910625	32.484375
242.048004	-286.151001	979.294006	-8.465625	-26.004999	39.396873
335.500000	-241.072006	988.139038	-9.773750	-11.497500	23.476250
407.419006	-119.194000	1004.426025	-21.376249	-4.523750	31.521875
280.356018	63.928001	1070.123047	-13.317500	1.356250	22.382500
336.170990	63.195999	995.398010	-7.997500	-0.818125	13.168750
76.799004	161.466995	1047.796997	-6.238750	0.896875	15.347500
117.181000	188.367996	1076.406006	18.143126	8.557500	12.578125
131.516006	119.987000	1047.492065	12.945625	-15.426250	20.868750
137.311005	96.929001	1103.551025	-0.188125	-9.353750	23.021250
143.289001	-11.956000	1062.437012	-1.833125	12.831875	24.530624
95.648003	-80.336998	1042.978027	4.200000	13.488125	16.607500
113.277000	-119.011002	1078.662964	7.774375	10.053750	1.246875
134.749008	-168.360001	1048.223999	2.773750	4.239375	-2.633750
152.072998	-191.845001	1045.479004	-8.653750	-13.833750	-22.299376
205.387009	-157.563004	1144.786987	-19.372499	5.805625	-5.088125
20.252001	-162.626007	1143.261963	-21.586250	5.941250	-2.165625
95.648003	-226.798004	1273.375000	-14.525000	4.388125	-16.406250
193.919006	-212.768005	1392.141968	1.417500	10.351250	-14.131250
163.602005	-287.127014	1398.181030	-0.686875	37.773750	17.828125
61.427002	-341.904999	1289.906006	-9.095625	48.860001	16.625000
122.732002	-231.128998	1124.412964	-0.336875	27.094376	-6.138125
